Timestamp,Label,EEG_1,EEG_2,EEG_3,EEG_4,EEG_5,EEG_6,EEG_7,EEG_8
304303.8372961,No Event,-36713.56640625,-25055.74609375,-25604.974609375,-10872.73828125,-18945.830078125,-26255.611328125,-34204.7421875,-33425.4921875
304303.8412961,No Event,-36686.58984375,-25060.1953125,-25758.798828125,-10777.0498046875,-18932.642578125,-26383.484375,-34185.0703125,-33398.9140625
304303.8452961,No Event,-36681.78125,-25063.056640625,-26079.880859375,-10703.84765625,-18895.986328125,-26346.6484375,-34177.0,-33391.16015625
304303.84929610003,No Event,-36713.6796875,-25064.396484375,-25983.970703125,-10640.7041015625,-18910.224609375,-26214.416015625,-34205.38671875,-33421.78125
304303.85329610005,No Event,-36717.63671875,-25059.12109375,-25631.68359375,-10513.5009765625,-18894.64453125,-26229.236328125,-34208.67578125,-33427.859375
304303.85729610006,No Event,-36684.15234375,-25055.658203125,-25702.806640625,-10385.4921875,-18860.22265625,-26363.345703125,-34181.671875,-33396.32421875
304303.8612961001,No Event,-36670.96484375,-25055.142578125,-26039.380859375,-10262.78125,-18836.91015625,-26361.53515625,-34172.53125,-33384.38671875
304303.8652961001,No Event,-36710.125,-25066.20703125,-26039.06640625,-10172.8154296875,-18846.3203125,-26237.05859375,-34207.4453125,-33423.7265625
304303.8692961001,No Event,-36724.8984375,-25060.59765625,-25676.544921875,-10034.9716796875,-18833.111328125,-26214.86328125,-34214.9765625,-33435.05859375
304303.87260229996,No Event,-36684.0390625,-25058.40625,-25985.154296875,-9753.787109375,-18765.048828125,-26379.05859375,-34171.45703125,-33394.7578125
304303.8732961001,No Event,-36700.828125,-25059.078125,-25655.533203125,-9871.1337890625,-18791.6484375,-26348.884765625,-34187.3046875,-33409.64453125
304303.8766023,No Event,-36700.515625,-25053.98046875,-26069.443359375,-9673.96875,-18755.908203125,-26249.77734375,-34187.93359375,-33412.23828125
304303.8806023,No Event,-36717.03125,-25044.01171875,-25708.796875,-9561.5625,-18736.283203125,-26184.21875,-34199.421875,-33426.5859375
304303.8846023,No Event,-36683.81640625,-25031.271484375,-25591.98828125,-9424.76953125,-18689.322265625,-26300.60546875,-34166.96484375,-33395.00390625
304303.8886023,No Event,-36664.99609375,-25036.009765625,-25899.7265625,-9341.12890625,-18662.275390625,-26368.80078125,-34153.0625,-33376.875
304303.89260230004,No Event,-36693.71875,-25054.494140625,-26089.224609375,-9309.322265625,-18675.375,-26276.732421875,-34183.73046875,-33407.85546875
304303.89660230005,No Event,-36716.00390625,-25048.52734375,-25778.6015625,-9255.34375,-18661.181640625,-26186.87890625,-34199.28515625,-33431.70703125
304303.90060230007,No Event,-36697.765625,-25044.056640625,-25581.974609375,-9166.830078125,-18618.154296875,-26285.6953125,-34177.73828125,-33413.7109375
304303.9046023001,No Event,-36671.09765625,-25046.984375,-25847.423828125,-9107.017578125,-18588.873046875,-26378.76953125,-34154.5625,-33385.078125
304303.9056349,No Event,-36719.89453125,-25056.57421875,-25842.595703125,-9075.5009765625,-18587.6875,-26188.17578125,-34194.2109375,-33430.74609375
304303.9086023001,No Event,-36685.55859375,-25054.337890625,-26086.85546875,-9078.4736328125,-18579.150390625,-26294.994140625,-34164.796875,-33396.76953125
304303.9096349,No Event,-36711.7109375,-25054.2265625,-25576.140625,-9035.71484375,-18568.755859375,-26264.88671875,-34190.43359375,-33423.27734375
304303.9136349,No Event,-36670.765625,-25044.392578125,-25780.3671875,-8979.34375,-18528.814453125,-26373.5390625,-34153.62109375,-33381.81640625
304303.9176349,No Event,-36674.54296875,-25049.15234375,-26071.23046875,-8954.8466796875,-18521.03515625,-26312.048828125,-34153.80078125,-33385.66015625
304303.92163490003,No Event,-36701.87890625,-25043.810546875,-25896.9765625,-8940.7197265625,-18524.521484375,-26181.1796875,-34176.3984375,-33413.82421875
304303.92563490005,No Event,-36706.4375,-25041.576171875,-25569.814453125,-8904.4208984375,-18512.138671875,-26221.412109375,-34182.5,-33419.6796875
304303.92963490007,No Event,-36681.73828125,-25046.224609375,-25714.162109375,-8879.0966796875,-18481.00390625,-26360.91015625,-34160.88671875,-33394.82421875
304303.9336349001,No Event,-36682.54296875,-25056.283203125,-26049.884765625,-8884.4384765625,-18484.244140625,-26341.955078125,-34162.3828125,-33396.9921875
304303.9376349001,No Event,-36719.6484375,-25066.609375,-25986.33984375,-8908.623046875,-18509.279296875,-26222.26171875,-34199.44140625,-33432.64453125
304303.9416349001,No Event,-36722.7109375,-25058.25,-25625.560546875,-8881.689453125,-18495.509765625,-26222.708984375,-34201.03125,-33435.484375
304303.94319819997,No Event,-36697.765625,-25060.57421875,-25671.224609375,-8848.9443359375,-18467.705078125,-26357.580078125,-34177.6484375,-33408.953125
304303.9471982,No Event,-36684.3984375,-25063.927734375,-26013.384765625,-8845.970703125,-18463.3671875,-26366.876953125,-34167.7265625,-33397.10546875
304303.9511982,No Event,-36707.0625,-25064.330078125,-26039.537109375,-8865.484375,-18473.984375,-26238.82421875,-34189.16015625,-33425.11328125
304303.9551982,No Event,-36723.828125,-25059.814453125,-25674.017578125,-8849.2568359375,-18472.93359375,-26205.9453125,-34202.39453125,-33439.41796875
304303.9591982,No Event,-36699.46484375,-25061.490234375,-25636.958984375,-8823.552734375,-18447.7890625,-26342.42578125,-34184.22265625,-33414.1796875
304303.96319820004,No Event,-36676.484375,-25057.892578125,-25963.943359375,-8819.3056640625,-18428.72265625,-26377.248046875,-34164.77734375,-33392.30078125
304303.96719820006,No Event,-36698.63671875,-25062.20703125,-26079.94921875,-8847.580078125,-18457.130859375,-26259.365234375,-34189.25,-33417.2890625
304303.9680736,No Event,-36713.34375,-25076.01953125,-26089.158203125,-8815.0810546875,-18419.982421875,-26286.43359375,-34177.1796875,-33425.515625
304303.9711982001,No Event,-36729.48046875,-25066.185546875,-25737.67578125,-8859.248046875,-18478.74609375,-26197.787109375,-34213.94921875,-33448.0
304303.9720736,No Event,-36731.671875,-25065.447265625,-25790.091796875,-8817.830078125,-18432.791015625,-26187.818359375,-34193.69921875,-33441.29296875
304303.9751982001,No Event,-36713.546875,-25067.50390625,-25605.755859375,-8827.3525390625,-18456.7734375,-26316.697265625,-34192.1328125,-33429.46875
304303.9760736,No Event,-36714.484375,-25060.240234375,-25577.123046875,-8797.1767578125,-18421.66015625,-26279.326171875,-34183.171875,-33422.05078125
304303.9791982001,No Event,-36693.7421875,-25069.068359375,-25897.78125,-8809.068359375,-18431.115234375,-26385.541015625,-34168.3515625,-33408.05859375
304303.9800736,No Event,-36684.2421875,-25057.51171875,-25828.291015625,-8758.28515625,-18404.44921875,-26374.142578125,-34160.484375,-33392.07421875
304303.98407360003,No Event,-36681.73828125,-25054.337890625,-26086.5859375,-8749.7919921875,-18398.212890625,-26293.33984375,-34159.41015625,-33389.73046875
304303.98807360005,No Event,-36713.65625,-25054.65234375,-25854.552734375,-8789.197265625,-18417.412109375,-26178.765625,-34189.2734375,-33422.02734375
304303.99207360006,No Event,-36711.6015625,-25055.27734375,-25571.423828125,-8784.212890625,-18413.076171875,-26250.939453125,-34188.66796875,-33420.328125
304303.9960736001,No Event,-36673.66796875,-25048.19140625,-25758.619140625,-8737.20703125,-18377.134765625,-26369.984375,-34154.4921875,-33382.5078125
304304.0000736001,No Event,-36675.6796875,-25054.5625,-26067.833984375,-8754.9990234375,-18385.001953125,-26323.248046875,-34163.390625,-33386.5546875
304304.0040736001,No Event,-36711.1328125,-25062.384765625,-25937.2109375,-8804.5087890625,-18438.87109375,-26202.705078125,-34205.76953125,-33425.84765625
304304.00438969996,No Event,-36711.33203125,-25056.283203125,-25602.89453125,-8782.6708984375,-18431.0703125,-26233.326171875,-34207.84765625,-33425.58203125
304304.0083897,No Event,-36679.0546875,-25054.2265625,-25720.197265625,-8750.3955078125,-18389.697265625,-26366.029296875,-34177.875,-33392.1875
304304.0123897,No Event,-36681.26953125,-25064.62109375,-26054.4453125,-8756.2060546875,-18388.53515625,-26350.560546875,-34177.984375,-33391.875
304304.0163897,No Event,-36706.9296875,-25063.546875,-26005.896484375,-8781.4189453125,-18403.845703125,-26218.6640625,-34199.62109375,-33415.3203125
304304.0203897,No Event,-36722.84375,-25061.71484375,-25634.791015625,-8776.748046875,-18408.248046875,-26208.3359375,-34206.7734375,-33425.2890625
304304.02438970003,No Event,-36693.5859375,-25058.5859375,-25665.814453125,-8744.3828125,-18382.0078125,-26348.6171875,-34177.47265625,-33395.47265625
304304.02838970005,No Event,-36676.5078125,-25056.57421875,-25998.3203125,-8729.5185546875,-18371.76953125,-26359.837890625,-34161.7578125,-33380.4765625
304304.03238970006,No Event,-36699.7109375,-25055.6796875,-26037.927734375,-8751.5576171875,-18383.482421875,-26230.197265625,-34181.5625,-33407.74609375
304304.0363897001,No Event,-36711.421875,-25044.66015625,-25669.34765625,-8756.318359375,-18380.30859375,-26184.443359375,-34190.078125,-33421.0
304304.0403897001,No Event,-36688.80078125,-25045.486328125,-25609.779296875,-8744.0693359375,-18372.330078125,-26315.40234375,-34172.2421875,-33398.82421875
304304.0466804,No Event,-36672.1953125,-25050.8515625,-25929.05078125,-8727.126953125,-18364.505859375,-26360.640625,-34159.1875,-33383.46875
304304.0506804,No Event,-36687.21484375,-25049.107421875,-26064.861328125,-8743.0859375,-18360.125,-26246.357421875,-34170.20703125,-33399.8984375
304304.0546804,No Event,-36721.48046875,-25056.6640625,-25739.732421875,-8780.369140625,-18388.244140625,-26181.716796875,-34204.875,-33434.296875
304304.0586804,No Event,-36699.23828125,-25052.640625,-25590.064453125,-8751.5126953125,-18369.267578125,-26295.798828125,-34186.25390625,-33412.6171875
304304.06268040003,No Event,-36676.171875,-25055.166015625,-25878.4921875,-8738.4140625,-18350.111328125,-26373.8515625,-34166.5859375,-33391.09375
304304.06668040005,No Event,-36687.39453125,-25058.02734375,-26095.59375,-8751.6689453125,-18353.822265625,-26281.158203125,-34179.68359375,-33402.71484375
304304.07068040007,No Event,-36707.98046875,-25048.9296875,-25811.1015625,-8759.8720703125,-18373.9609375,-26177.291015625,-34201.6328125,-33423.859375
304304.0746804001,No Event,-36695.88671875,-25043.095703125,-25574.44140625,-8719.2138671875,-18355.900390625,-26260.7734375,-34187.26171875,-33410.47265625
304304.07471809996,No Event,-36710.05859375,-25046.783203125,-25871.49609375,-8726.7021484375,-18357.755859375,-26170.5625,-34190.30078125,-33418.94140625
304304.0786804001,No Event,-36668.86328125,-25040.63671875,-25808.62109375,-8689.77734375,-18326.216796875,-26361.9609375,-34156.171875,-33383.046875
304304.0787181,No Event,-36709.09765625,-25047.6328125,-25571.84765625,-8705.53515625,-18352.50390625,-26230.912109375,-34189.20703125,-33418.33984375
304304.0826804001,No Event,-36674.71875,-25045.173828125,-26083.859375,-8705.892578125,-18333.28125,-26291.84375,-34161.01953125,-33385.99609375
304304.0827181,No Event,-36682.09765625,-25052.3046875,-25747.5546875,-8683.138671875,-18332.96875,-26359.970703125,-34169.0234375,-33393.73046875
304304.0867181,No Event,-36682.05078125,-25060.328125,-26067.365234375,-8684.7705078125,-18331.537109375,-26321.1015625,-34172.53125,-33398.3359375
304304.0907181,No Event,-36715.4453125,-25064.12890625,-25956.03125,-8707.0322265625,-18351.720703125,-26200.8046875,-34203.265625,-33433.31640625
304304.09471810004,No Event,-36718.0390625,-25059.5234375,-25612.3046875,-8706.8310546875,-18359.029296875,-26226.91015625,-34207.578125,-33435.7734375
304304.09871810005,No Event,-36681.91796875,-25052.28125,-25700.259765625,-8679.80859375,-18320.025390625,-26356.70703125,-34173.29296875,-33399.98828125
304304.10108469997,No Event,-36689.91796875,-25048.28125,-25643.462890625,-8668.431640625,-18353.576171875,-26337.931640625,-34173.89453125,-33406.29296875
304304.10271810007,No Event,-36673.66796875,-25054.427734375,-26031.9375,-8677.05859375,-18302.927734375,-26343.654296875,-34164.70703125,-33390.69140625
304304.1050847,No Event,-36673.04296875,-25050.78515625,-25976.6171875,-8664.67578125,-18345.10546875,-26361.244140625,-34163.27734375,-33389.59375
304304.1067181001,No Event,-36702.28125,-25056.23828125,-26005.0703125,-8698.494140625,-18344.232421875,-26215.376953125,-34191.10546875,-33419.234375
304304.1090847,No Event,-36708.0234375,-25066.36328125,-26053.21484375,-8705.9599609375,-18375.34765625,-26247.18359375,-34195.98046875,-33424.28515625
304304.1107181001,No Event,-36718.3515625,-25052.818359375,-25639.775390625,-8696.9072265625,-18368.775390625,-26201.474609375,-34200.89453125,-33434.0078125
304304.1130847,No Event,-36728.18359375,-25065.693359375,-25698.359375,-8718.0078125,-18393.98828125,-26206.392578125,-34215.08984375,-33447.53125
304304.11708470003,No Event,-36707.578125,-25069.404296875,-25618.607421875,-8697.6005859375,-18382.8125,-26337.484375,-34198.32421875,-33426.54296875
304304.12108470005,No Event,-36684.7109375,-25068.46484375,-25926.83984375,-8680.6796875,-18350.37890625,-26385.810546875,-34170.67578125,-33398.37890625
304304.12508470006,No Event,-36695.37109375,-25063.48046875,-26076.23828125,-8699.2763671875,-18346.87109375,-26266.697265625,-34175.39453125,-33405.8203125
304304.1290847001,No Event,-36729.66015625,-25066.833984375,-25750.751953125,-8724.01953125,-18375.7265625,-26190.076171875,-34204.25,-33435.88671875
304304.1330847001,No Event,-36713.58984375,-25064.375,-25586.51171875,-8690.42578125,-18370.02734375,-26304.94140625,-34187.484375,-33418.44921875
304304.1359089,No Event,-36697.31640625,-25064.0390625,-26082.65234375,-8693.9794921875,-18348.591796875,-26286.1875,-34170.1640625,-33398.51171875
304304.1370847001,No Event,-36683.125,-25058.228515625,-25858.53125,-8664.810546875,-18341.259765625,-26377.31640625,-34157.2890625,-33384.90234375
304304.1399089,No Event,-36735.1796875,-25071.638671875,-25822.880859375,-8721.9189453125,-18377.158203125,-26194.388671875,-34205.41015625,-33438.0078125
304304.14390890003,No Event,-36724.02734375,-25067.4375,-25576.921875,-8703.970703125,-18354.91796875,-26284.19921875,-34193.51953125,-33431.3046875
304304.14790890005,No Event,-36689.80859375,-25063.056640625,-25798.31640625,-8671.8291015625,-18327.849609375,-26388.71484375,-34164.1953125,-33397.88671875
304304.15190890006,No Event,-36699.10546875,-25073.6953125,-26087.994140625,-8675.025390625,-18339.404296875,-26329.572265625,-34178.09765625,-33411.453125
304304.1559089001,No Event,-36717.9921875,-25063.97265625,-25899.279296875,-8690.1123046875,-18350.291015625,-26204.3359375,-34197.5859375,-33430.6328125
304304.1599089001,No Event,-36711.98046875,-25058.517578125,-25585.4609375,-8673.68359375,-18335.181640625,-26254.26953125,-34193.1640625,-33425.3359375
304304.1639089001,No Event,-36679.390625,-25057.333984375,-25740.671875,-8645.185546875,-18321.232421875,-26379.4609375,-34166.2265625,-33394.3984375
304304.1679089001,No Event,-36684.44140625,-25065.984375,-26063.162109375,-8663.06640625,-18342.421875,-26346.447265625,-34171.37109375,-33400.4140625
304304.17190890014,No Event,-36712.671875,-25062.294921875,-25962.9375,-8687.2958984375,-18359.3203125,-26211.689453125,-34194.75,-33427.63671875
304304.2547236,No Event,-36719.578125,-25058.943359375,-25604.52734375,-8675.3603515625,-18344.232421875,-26225.32421875,-34199.59765625,-33434.05078125
304304.2587236,No Event,-36684.3984375,-25053.04296875,-25679.60546875,-8642.2353515625,-18312.740234375,-26359.92578125,-34167.7265625,-33396.5703125
304304.2627236,No Event,-36675.92578125,-25057.109375,-26018.951171875,-8640.9833984375,-18312.5390625,-26358.048828125,-34162.67578125,-33386.59765625
304304.26672360004,No Event,-36705.74609375,-25060.126953125,-26014.591796875,-8667.8720703125,-18332.408203125,-26226.330078125,-34188.9140625,-33415.72265625
304304.27072360006,No Event,-36727.46875,-25061.736328125,-25646.033203125,-8671.8955078125,-18342.265625,-26206.056640625,-34204.29296875,-33435.4375
304304.2747236001,No Event,-36690.703125,-25051.857421875,-25630.119140625,-8637.6083984375,-18312.091796875,-26336.994140625,-34169.6484375,-33400.14453125
304304.2787236001,No Event,-36667.96875,-25048.03515625,-25958.466796875,-8633.9873046875,-18292.19921875,-26364.26171875,-34148.68359375,-33377.63671875
304304.2827236001,No Event,-36695.4609375,-25050.716796875,-26042.5546875,-8677.1484375,-18307.375,-26241.283203125,-34170.25,-33403.56640625
304304.2867236001,No Event,-36718.75390625,-25049.755859375,-25686.87109375,-8674.01953125,-18319.490234375,-26186.23046875,-34188.9140625,-33425.71484375
304304.29072360013,No Event,-36695.44140625,-25048.728515625,-25580.029296875,-8620.77734375,-18305.4296875,-26312.5859375,-34171.61328125,-33401.9765625
304304.2975532,No Event,-36666.828125,-25045.822265625,-25897.759765625,-8618.1171875,-18301.541015625,-26375.884765625,-34152.9296875,-33376.05078125
304304.3015532,No Event,-36680.93359375,-25045.46484375,-26069.21875,-8637.98828125,-18312.806640625,-26260.9296875,-34165.0,-33388.09765625
304304.3055532,No Event,-36709.5,-25044.482421875,-25756.2734375,-8653.9697265625,-18330.5546875,-26175.234375,-34191.1953125,-33415.43359375
304304.30955320003,No Event,-36695.1953125,-25044.056640625,-25563.421875,-8649.365234375,-18318.416015625,-26279.236328125,-34178.3203125,-33403.20703125
304304.31355320005,No Event,-36681.5390625,-25055.5,-25840.494140625,-8644.0009765625,-18321.14453125,-26380.7578125,-34166.65234375,-33392.87890625
304304.31755320006,No Event,-36689.671875,-25059.12109375,-26088.53125,-8663.71484375,-18330.84375,-26298.212890625,-34174.4765625,-33401.0390625
304304.3215532001,No Event,-36708.4921875,-25047.41015625,-25835.0625,-8674.82421875,-18334.62109375,-26183.884765625,-34190.97265625,-33421.04296875
304304.3255532001,No Event,-36705.453125,-25047.900390625,-25563.82421875,-8644.9619140625,-18333.392578125,-26259.8125,-34189.2734375,-33419.8359375
304304.3295532001,No Event,-36673.9609375,-25045.888671875,-25770.935546875,-8612.8203125,-18313.544921875,-26374.791015625,-34163.30078125,-33389.23828125
304304.332059,No Event,-36703.59765625,-25048.974609375,-25900.306640625,-8647.95703125,-18348.279296875,-26191.05859375,-34189.921875,-33418.13671875
304304.3335532001,No Event,-36674.65234375,-25050.875,-26069.689453125,-8632.3779296875,-18326.3515625,-26318.306640625,-34167.34765625,-33390.1328125
304304.336059,No Event,-36700.1328125,-25040.79296875,-25575.513671875,-8632.2880859375,-18340.03125,-26229.638671875,-34183.05859375,-33412.3046875
304304.340059,No Event,-36674.2265625,-25042.89453125,-25713.40234375,-8619.3916015625,-18318.595703125,-26360.462890625,-34160.86328125,-33386.21875
304304.344059,No Event,-36675.43359375,-25049.01953125,-26039.380859375,-8622.7666015625,-18318.57421875,-26334.9140625,-34159.25390625,-33388.1640625
304304.34805900004,No Event,-36709.3203125,-25049.48828125,-25953.9296875,-8636.8701171875,-18329.48046875,-26198.94921875,-34184.35546875,-33419.03125
304304.35205900006,No Event,-36709.54296875,-25039.83203125,-25595.49609375,-8621.5595703125,-18323.759765625,-26203.576171875,-34185.29296875,-33419.03125
304304.35605900007,No Event,-36681.828125,-25040.861328125,-25653.0078125,-8600.638671875,-18314.6171875,-26343.1171875,-34165.84765625,-33395.36328125
304304.3600590001,No Event,-36674.49609375,-25046.716796875,-25994.85546875,-8612.9541015625,-18303.015625,-26350.158203125,-34161.98046875,-33389.52734375
304304.3640590001,No Event,-36692.98046875,-25042.08984375,-26013.8984375,-8635.685546875,-18289.181640625,-26218.998046875,-34181.2265625,-33407.90234375
304304.36781719996,No Event,-36684.77734375,-25040.435546875,-25620.396484375,-8604.9521484375,-18326.28515625,-26329.05859375,-34177.359375,-33400.8828125
304304.3680590001,No Event,-36708.1796875,-25038.201171875,-25651.509765625,-8637.3623046875,-18307.375,-26191.640625,-34199.375,-33425.04296875
304304.3718172,No Event,-36658.6953125,-25034.53515625,-25947.1796875,-8602.8291015625,-18311.80078125,-26359.27734375,-34155.1875,-33376.69921875
304304.3758172,No Event,-36681.828125,-25038.24609375,-26048.857421875,-8634.7470703125,-18324.00390625,-26237.39453125,-34178.25390625,-33400.97265625
304304.3798172,No Event,-36708.24609375,-25038.892578125,-25701.623046875,-8656.0703125,-18335.158203125,-26178.02734375,-34201.453125,-33426.1640625
304304.3838172,No Event,-36682.38671875,-25034.669921875,-25573.927734375,-8625.4267578125,-18309.119140625,-26299.375,-34176.01953125,-33402.04296875
304304.38781720004,No Event,-36671.8828125,-25048.080078125,-25884.86328125,-8620.9111328125,-18299.08203125,-26379.05859375,-34167.6796875,-33390.2890625
304304.39181720006,No Event,-36687.05859375,-25052.974609375,-26079.43359375,-8650.1474609375,-18309.72265625,-26277.8515625,-34185.875,-33404.859375
304304.3947818,No Event,-36677.515625,-25046.626953125,-26080.75390625,-8652.046875,-18274.16015625,-26291.396484375,-34165.66796875,-33396.43359375
304304.3958172001,No Event,-36714.68359375,-25052.103515625,-25783.33984375,-8677.998046875,-18334.935546875,-26189.13671875,-34213.5703125,-33434.65625
304304.3987818,No Event,-36716.18359375,-25054.337890625,-25850.396484375,-8680.3896484375,-18301.697265625,-26184.419921875,-34205.94921875,-33432.0390625
304304.3998172001,No Event,-36705.8125,-25055.478515625,-25582.443359375,-8659.3564453125,-18334.3984375,-26291.642578125,-34201.8125,-33425.40234375
304304.4027818,No Event,-36719.53515625,-25061.87109375,-25578.978515625,-8668.990234375,-18309.4765625,-26264.908203125,-34212.78515625,-33435.19140625
304304.4038172001,No Event,-36674.83203125,-25049.197265625,-25830.32421875,-8628.7119140625,-18297.294921875,-26381.40625,-34167.63671875,-33395.83203125
304304.40678180003,No Event,-36696.98046875,-25066.140625,-25773.169921875,-8657.76953125,-18338.689453125,-26380.35546875,-34181.18359375,-33406.1796875
304304.41078180005,No Event,-36691.125,-25065.1796875,-26074.919921875,-8695.521484375,-18342.736328125,-26322.419921875,-34175.79296875,-33401.88671875
304304.41478180006,No Event,-36724.51953125,-25070.65625,-25928.1796875,-8730.994140625,-18356.951171875,-26202.8828125,-34209.2109375,-33440.22265625
304304.4187818001,No Event,-36728.51953125,-25071.080078125,-25594.490234375,-8740.0234375,-18339.427734375,-26243.16015625,-34213.97265625,-33442.65625
304304.4227818001,No Event,-36690.2109375,-25065.6484375,-25711.591796875,-8728.8037109375,-18310.302734375,-26367.99609375,-34182.65625,-33401.15234375
304304.4267818001,No Event,-36680.80078125,-25067.951171875,-26040.810546875,-8737.341796875,-18303.77734375,-26344.5703125,-34174.38671875,-33389.73046875
304304.4281663,No Event,-36717.34375,-25059.837890625,-25609.779296875,-8781.375,-18322.150390625,-26205.677734375,-34199.890625,-33421.71484375
304304.4307818001,No Event,-36713.43359375,-25070.8125,-25979.9921875,-8765.482421875,-18321.92578125,-26213.90234375,-34198.97265625,-33421.6484375
304304.4321663,No Event,-36690.3203125,-25061.759765625,-25643.955078125,-8764.1416015625,-18292.533203125,-26343.251953125,-34174.51953125,-33394.33203125
304304.43616630003,No Event,-36685.203125,-25074.767578125,-25987.30078125,-8783.3193359375,-18281.08984375,-26363.078125,-34174.90234375,-33392.703125
304304.44016630005,No Event,-36714.4609375,-25085.1171875,-26039.15625,-8843.244140625,-18311.15234375,-26244.14453125,-34208.96484375,-33427.01171875
304304.44416630006,No Event,-36731.62890625,-25083.373046875,-25680.34375,-8871.2958984375,-18317.634765625,-26205.498046875,-34221.97265625,-33442.43359375
304304.4481663001,No Event,-36701.05078125,-25077.181640625,-25621.22265625,-8869.5966796875,-18282.876953125,-26327.025390625,-34188.40234375,-33407.0078125
304304.4521663001,No Event,-36685.4921875,-25083.328125,-25938.216796875,-8901.134765625,-18267.833984375,-26366.990234375,-34176.578125,-33392.6328125
304304.4561663001,No Event,-36707.1953125,-25093.744140625,-26081.916015625,-8948.4091796875,-18289.583984375,-26260.841796875,-34200.3828125,-33416.28125
304304.4601663001,No Event,-36736.43359375,-25098.52734375,-25752.830078125,-8999.28125,-18311.599609375,-26201.20703125,-34228.94921875,-33444.71484375
304304.4639483,No Event,-36688.421875,-25093.208984375,-25894.80859375,-9035.513671875,-18243.962890625,-26391.53125,-34186.14453125,-33399.96484375
304304.46416630014,No Event,-36715.421875,-25095.7109375,-25601.7109375,-9017.0732421875,-18275.3671875,-26316.7421875,-34211.78125,-33426.5859375
304304.4679483,No Event,-36702.32421875,-25095.935546875,-26103.57421875,-9092.1083984375,-18271.1875,-26293.654296875,-34196.73828125,-33414.44921875
304304.4719483,No Event,-36735.09375,-25098.37109375,-25813.8515625,-9143.1376953125,-18310.4140625,-26197.1171875,-34224.20703125,-33447.28515625
304304.47594830004,No Event,-36721.1875,-25095.666015625,-25586.779296875,-9158.4931640625,-18285.4921875,-26290.12109375,-34207.9375,-33430.02734375
304304.47994830005,No Event,-36695.9765625,-25099.17578125,-25827.0390625,-9171.4794921875,-18259.765625,-26389.2734375,-34185.67578125,-33402.55859375
304304.48394830007,No Event,-36703.0625,-25107.53515625,-26101.25,-9226.8447265625,-18269.220703125,-26319.42578125,-34193.9453125,-33409.82421875
304304.4879483001,No Event,-36735.3359375,-25109.234375,-25884.125,-9282.634765625,-18289.248046875,-26204.1796875,-34224.20703125,-33440.48828125
304304.489451,No Event,-36727.984375,-25106.798828125,-25948.744140625,-9400.607421875,-18296.109375,-26209.119140625,-34219.9609375,-33425.22265625
304304.4919483001,No Event,-36731.60546875,-25107.0,-25589.595703125,-9302.0361328125,-18285.08984375,-26266.00390625,-34220.69921875,-33434.12109375
304304.493451,No Event,-36731.42578125,-25104.4296875,-25606.494140625,-9417.326171875,-18307.0625,-26238.4453125,-34224.12109375,-33430.6328125
304304.4959483001,No Event,-36709.609375,-25114.6875,-25770.533203125,-9314.396484375,-18271.634765625,-26395.30859375,-34205.25390625,-33410.96484375
304304.49745100003,No Event,-36692.17578125,-25098.751953125,-25709.021484375,-9407.8271484375,-18283.75,-26372.845703125,-34191.0390625,-33394.109375
304304.49994830013,No Event,-36704.828125,-25114.6875,-26082.853515625,-9347.56640625,-18273.01953125,-26346.873046875,-34200.78515625,-33403.80859375
304304.50145100005,No Event,-36687.08203125,-25106.283203125,-26043.560546875,-9442.3828125,-18284.755859375,-26355.412109375,-34189.33984375,-33391.5390625
304304.50545100006,No Event,-36733.28125,-25126.154296875,-26027.623046875,-9500.876953125,-18330.798828125,-26240.880859375,-34234.08984375,-33442.8125
304304.5094510001,No Event,-36754.08984375,-25129.865234375,-25667.537109375,-9525.77734375,-18357.64453125,-26240.568359375,-34253.734375,-33466.39453125
304304.5134510001,No Event,-36709.85546875,-25113.279296875,-25667.603515625,-9497.1669921875,-18324.8984375,-26364.0390625,-34212.3828125,-33416.55078125
304304.5174510001,No Event,-36689.046875,-25109.927734375,-25996.5546875,-9514.1318359375,-18319.646484375,-26372.33203125,-34190.94921875,-33391.49609375
304304.5214510001,No Event,-36706.50390625,-25102.39453125,-26046.95703125,-9557.203125,-18340.724609375,-26233.326171875,-34203.01953125,-33405.91015625
304304.5247756,No Event,-36713.09765625,-25109.97265625,-25629.671875,-9584.5849609375,-18352.50390625,-26339.072265625,-34212.71875,-33421.19921875
304304.52545100014,No Event,-36733.1015625,-25107.22265625,-25694.314453125,-9590.2841796875,-18368.775390625,-26198.279296875,-34229.75390625,-33435.99609375
304304.5287756,No Event,-36710.2578125,-25131.005859375,-25960.388671875,-9620.212890625,-18375.302734375,-26404.18359375,-34216.02734375,-33421.04296875
304304.53277560003,No Event,-36719.6484375,-25129.931640625,-26121.34375,-9667.173828125,-18399.8671875,-26292.22265625,-34229.484375,-33429.4921875
304304.53677560005,No Event,-36744.97265625,-25125.171875,-25788.080078125,-9700.0087890625,-18419.78125,-26210.974609375,-34250.26953125,-33452.671875
304304.54077560006,No Event,-36721.03125,-25114.912109375,-25607.72265625,-9676.986328125,-18404.91796875,-26313.61328125,-34223.671875,-33428.75390625
304304.5447756001,No Event,-36689.515625,-25111.71484375,-25887.119140625,-9668.380859375,-18388.265625,-26389.609375,-34193.72265625,-33398.3125
304304.5487756001,No Event,-36703.171875,-25116.744140625,-26119.17578125,-9708.79296875,-18416.00390625,-26299.822265625,-34208.8984375,-33411.9921875
304304.5527756001,No Event,-36731.91796875,-25114.0625,-25847.400390625,-9747.39453125,-18443.1171875,-26200.291015625,-34235.765625,-33440.87109375
304304.5567756001,No Event,-36723.91796875,-25113.525390625,-25591.673828125,-9746.8134765625,-18429.7734375,-26284.466796875,-34227.49609375,-33433.0703125
304304.5591209,No Event,-36703.53125,-25121.7734375,-26118.28125,-9764.203125,-18423.0,-26324.54296875,-34199.48828125,-33413.82421875
304304.56077560014,No Event,-36694.48046875,-25115.08984375,-25825.228515625,-9736.7998046875,-18418.171875,-26391.822265625,-34196.58203125,-33405.75390625
304304.5631209,No Event,-36729.21484375,-25112.095703125,-25912.82421875,-9797.931640625,-18446.6484375,-26198.92578125,-34222.375,-33442.0078125
304304.5671209,No Event,-36720.875,-25101.1875,-25593.865234375,-9810.0908203125,-18462.33984375,-26246.78125,-34220.41015625,-33431.59375
304304.57112090004,No Event,-36685.62890625,-25095.890625,-25746.21484375,-9803.9892578125,-18448.369140625,-26365.8046875,-34193.51953125,-33397.12890625
304304.57512090006,No Event,-36685.828125,-25105.0546875,-26081.9375,-9837.0478515625,-18466.072265625,-26337.306640625,-34198.90625,-33400.9921875
304304.5791209001,No Event,-36723.06640625,-25113.75,-25990.384765625,-9888.0986328125,-18506.841796875,-26215.82421875,-34234.73828125,-33435.125
304304.5831209001,No Event,-36720.05078125,-25099.84765625,-25634.12109375,-9895.2509765625,-18514.0625,-26229.34765625,-34232.234375,-33429.06640625
304304.5871209001,No Event,-36696.98046875,-25102.216796875,-25708.619140625,-9900.7724609375,-18520.1640625,-26368.44140625,-34217.30078125,-33407.453125
304304.5911209001,No Event,-36698.97265625,-25116.767578125,-26060.63671875,-9938.658203125,-18547.208984375,-26373.359375,-34225.328125,-33408.1484375
304304.59284359997,No Event,-36740.25390625,-25112.7890625,-25707.12109375,-10024.3330078125,-18609.078125,-26237.595703125,-34278.234375,-33449.00390625
304304.59512090014,No Event,-36717.65625,-25110.44140625,-26069.98046875,-9992.5263671875,-18583.822265625,-26244.724609375,-34251.3203125,-33424.91015625
304304.5968436,No Event,-36718.70703125,-25111.201171875,-25685.529296875,-10018.2978515625,-18611.26953125,-26379.037109375,-34264.91015625,-33430.51953125
304304.6008436,No Event,-36695.640625,-25106.88671875,-26025.208984375,-10032.826171875,-18617.23828125,-26400.763671875,-34250.62890625,-33406.06640625
304304.6048436,No Event,-36718.28515625,-25113.97265625,-26129.501953125,-10080.4130859375,-18651.859375,-26280.533203125,-34276.78125,-33426.96484375
304304.6088436,No Event,-36743.62890625,-25112.1171875,-25778.556640625,-10110.677734375,-18678.90625,-26236.27734375,-34302.1953125,-33454.34765625
304304.61284360004,No Event,-36725.234375,-25114.107421875,-25666.978515625,-10106.1396484375,-18676.0,-26364.59765625,-34288.11328125,-33439.86328125
304304.61684360006,No Event,-36712.828125,-25126.892578125,-25979.833984375,-10124.826171875,-18678.078125,-26427.853515625,-34282.1875,-33427.99609375
304304.6208436001,No Event,-36739.046875,-25145.35546875,-26198.322265625,-10174.4697265625,-18714.087890625,-26344.369140625,-34314.44140625,-33457.05078125
304304.6248436001,No Event,-36762.67578125,-25140.19140625,-25898.251953125,-10197.24609375,-18717.150390625,-26263.92578125,-34335.09765625,-33484.07421875
304304.6261543,No Event,-36726.41796875,-25139.9453125,-25914.76953125,-10160.1416015625,-18699.3359375,-26444.572265625,-34302.08203125,-33448.37890625
304304.6288436001,No Event,-36751.0078125,-25139.208984375,-25680.857421875,-10180.50390625,-18695.53515625,-26366.720703125,-34322.48828125,-33474.12890625
304304.6301543,No Event,-36724.921875,-25132.14453125,-26184.419921875,-10167.0263671875,-18713.662109375,-26359.837890625,-34299.578125,-33444.84765625
304304.63415430003,No Event,-36753.66796875,-25132.658203125,-25967.720703125,-10178.470703125,-18736.505859375,-26266.5859375,-34329.23828125,-33476.36328125
304304.63815430005,No Event,-36742.55859375,-25122.4453125,-25670.62109375,-10192.7080078125,-18735.90234375,-26337.26171875,-34313.37109375,-33466.08203125
304304.64215430006,No Event,-36721.58984375,-25123.673828125,-25839.64453125,-10189.0654296875,-18714.109375,-26439.810546875,-34291.5546875,-33445.2265625
304304.6461543001,No Event,-36724.33984375,-25130.423828125,-26164.99609375,-10194.943359375,-18709.953125,-26385.98828125,-34290.546875,-33446.27734375
304304.6501543001,No Event,-36734.19921875,-25112.2734375,-26028.806640625,-10197.9609375,-18711.583984375,-26258.091796875,-34297.12109375,-33455.01953125
304304.6541543001,No Event,-36727.06640625,-25095.46484375,-25667.71484375,-10171.4521484375,-18686.326171875,-26288.958984375,-34288.40234375,-33446.2578125
304304.6581543001,No Event,-36714.171875,-25110.59765625,-25756.361328125,-10162.935546875,-18675.1953125,-26413.837890625,-34282.48046875,-33433.515625
304304.66215430014,No Event,-36714.73046875,-25125.529296875,-26108.423828125,-10156.7890625,-18670.189453125,-26390.97265625,-34279.88671875,-33430.87890625
304304.73696129996,No Event,-36724.87890625,-25102.373046875,-26071.34375,-10154.93359375,-18668.4453125,-26260.974609375,-34286.390625,-33443.55078125
304304.7409613,No Event,-36738.2421875,-25099.310546875,-25702.2265625,-10162.6455078125,-18691.869140625,-26270.1171875,-34298.10546875,-33457.69921875
304304.7449613,No Event,-36725.19140625,-25108.18359375,-25693.59765625,-10142.4169921875,-18676.3125,-26401.1875,-34283.6875,-33446.5703125
304304.7489613,No Event,-36711.7109375,-25115.0234375,-26039.3125,-10139.0869140625,-18659.52734375,-26404.138671875,-34272.80078125,-33434.69921875
304304.7529613,No Event,-36738.46875,-25127.7421875,-26130.373046875,-10152.765625,-18658.140625,-26294.033203125,-34295.4453125,-33459.6015625
304304.75696130004,No Event,-36748.81640625,-25116.56640625,-25762.822265625,-10140.47265625,-18655.7265625,-26267.859375,-34302.41796875,-33471.0
304304.76096130005,No Event,-36733.01171875,-25119.896484375,-25655.64453125,-10117.427734375,-18659.728515625,-26386.48046875,-34283.44140625,-33457.34375
304304.76496130007,No Event,-36704.13671875,-25106.306640625,-25940.607421875,-10077.41796875,-18624.748046875,-26399.130859375,-34247.58984375,-33431.21484375
304304.7689613001,No Event,-36712.0234375,-25105.45703125,-26124.541015625,-10104.8662109375,-18625.462890625,-26294.994140625,-34257.421875,-33440.578125
304304.77137609996,No Event,-36722.30859375,-25112.029296875,-25616.484375,-10088.080078125,-18614.779296875,-26354.896484375,-34264.9765625,-33449.4296875
304304.7729613001,No Event,-36734.578125,-25108.943359375,-25814.587890625,-10116.109375,-18623.048828125,-26243.384765625,-34277.78515625,-33462.70703125
304304.7753761,No Event,-36708.42578125,-25124.388671875,-25877.666015625,-10086.314453125,-18618.287109375,-26412.341796875,-34250.80859375,-33433.3828125
304304.7793761,No Event,-36717.14453125,-25134.24609375,-26149.037109375,-10104.0390625,-18618.19921875,-26326.443359375,-34258.00390625,-33441.67578125
304304.7833761,No Event,-36740.58984375,-25133.888671875,-25905.671875,-10126.7705078125,-18639.65625,-26252.7265625,-34283.21875,-33464.1171875
304304.7873761,No Event,-36729.63671875,-25123.6953125,-25612.259765625,-10096.439453125,-18623.31640625,-26335.697265625,-34274.3671875,-33454.4609375
304304.79137610004,No Event,-36709.43359375,-25121.259765625,-25793.533203125,-10078.3564453125,-18599.22265625,-26411.3125,-34248.83984375,-33432.46484375
304304.79537610005,No Event,-36724.67578125,-25149.556640625,-26137.50390625,-10127.1728515625,-18616.90234375,-26351.947265625,-34268.734375,-33444.109375
304304.79937610007,No Event,-36735.80859375,-25135.408203125,-25971.810546875,-10130.0341796875,-18612.029296875,-26249.3515625,-34277.046875,-33455.0625
304304.8033761001,No Event,-36732.09765625,-25112.67578125,-25607.701171875,-10111.3037109375,-18602.73046875,-26296.9609375,-34269.0,-33450.03515625
304304.8053742,No Event,-36712.5625,-25130.15625,-26100.220703125,-10128.6708984375,-18590.482421875,-26361.69140625,-34256.640625,-33428.7109375
304304.8073761001,No Event,-36715.04296875,-25119.44921875,-25726.857421875,-10108.0400390625,-18593.388671875,-26403.109375,-34257.3125,-33432.0625
304304.8093742,No Event,-36737.8203125,-25131.20703125,-26039.357421875,-10148.4072265625,-18603.87109375,-26257.287109375,-34278.76953125,-33455.66796875
304304.8133742,No Event,-36748.1015625,-25122.154296875,-25651.3984375,-10152.36328125,-18607.0234375,-26290.009765625,-34289.0078125,-33467.40234375
304304.81737420004,No Event,-36723.984375,-25122.376953125,-25671.134765625,-10142.998046875,-18590.34765625,-26396.91796875,-34271.16796875,-33443.10546875
304304.82137420005,No Event,-36718.3046875,-25138.537109375,-26047.986328125,-10154.0849609375,-18589.07421875,-26381.18359375,-34267.50390625,-33435.39453125
304304.82537420007,No Event,-36737.10546875,-25133.26171875,-26085.291015625,-10171.6533203125,-18599.37890625,-26264.349609375,-34275.75,-33452.8046875
304304.8293742001,No Event,-36747.23046875,-25122.533203125,-25697.978515625,-10163.3828125,-18601.478515625,-26261.82421875,-34285.02734375,-33464.8515625
304304.8316565,No Event,-36736.1640625,-25113.951171875,-25741.251953125,-10160.9912109375,-18574.74609375,-26239.919921875,-34268.5546875,-33462.39453125
304304.8333742001,No Event,-36734.0859375,-25126.22265625,-25610.5625,-10141.388671875,-18586.392578125,-26376.64453125,-34270.6796875,-33450.3671875
304304.8356565,No Event,-36733.55078125,-25120.275390625,-25560.3828125,-10149.435546875,-18581.7421875,-26347.72265625,-34262.69921875,-33457.6796875
304304.8373742001,No Event,-36720.94140625,-25145.2421875,-25965.216796875,-10147.826171875,-18578.255859375,-26391.0625,-34263.01171875,-33438.96875
304304.83965650003,No Event,-36725.34765625,-25136.48046875,-25851.24609375,-10147.8935546875,-18581.072265625,-26387.173828125,-34254.80859375,-33451.12890625
304304.8413742001,No Event,-36729.125,-25144.52734375,-26122.126953125,-10155.671875,-18569.203125,-26292.267578125,-34263.52734375,-33451.9765625
304304.84365650004,No Event,-36732.7890625,-25140.9296875,-26083.63671875,-10166.400390625,-18582.48046875,-26291.462890625,-34258.78515625,-33459.15234375
304304.84765650006,No Event,-36750.203125,-25126.177734375,-25762.0390625,-10176.5478515625,-18593.388671875,-26221.2109375,-34271.39453125,-33476.36328125
304304.8516565001,No Event,-36741.6171875,-25116.677734375,-25483.939453125,-10161.21484375,-18588.314453125,-26312.205078125,-34263.19140625,-33468.3828125
304304.8556565001,No Event,-36729.37109375,-25125.998046875,-25711.970703125,-10154.173828125,-18578.255859375,-26366.140625,-34248.88671875,-33454.03515625
304304.8596565001,No Event,-36722.7109375,-25126.466796875,-26023.33203125,-10161.125,-18568.3984375,-26279.90625,-34239.921875,-33445.05078125
304304.8636565001,No Event,-36735.29296875,-25110.75390625,-25791.185546875,-10178.2470703125,-18574.009765625,-26191.52734375,-34252.5078125,-33463.06640625
304304.8672855,No Event,-36728.140625,-25120.1640625,-25611.5,-10173.642578125,-18575.39453125,-26360.3515625,-34250.11328125,-33456.44921875
304304.86765650014,No Event,-36751.1171875,-25119.470703125,-25455.619140625,-10191.3671875,-18589.923828125,-26277.828125,-34273.13671875,-33481.88671875
304304.8712855,No Event,-36727.24609375,-25130.087890625,-25973.107421875,-10184.7734375,-18575.39453125,-26295.888671875,-34246.76171875,-33452.42578125
304304.8752855,No Event,-36752.4375,-25131.49609375,-25858.666015625,-10200.017578125,-18589.587890625,-26206.236328125,-34269.91796875,-33475.9609375
304304.87928550004,No Event,-36754.0703125,-25118.935546875,-25478.306640625,-10191.5908203125,-18590.146484375,-26260.1484375,-34275.52734375,-33479.6484375
304304.88328550005,No Event,-36742.22265625,-25126.826171875,-25537.650390625,-10180.68359375,-18577.25,-26354.896484375,-34256.70703125,-33463.625
304304.88728550007,No Event,-36740.0546875,-25141.421875,-25936.5390625,-10187.8134765625,-18569.427734375,-26323.671875,-34247.1640625,-33456.828125
304304.8912855001,No Event,-36745.23828125,-25130.177734375,-25944.25,-10196.6650390625,-18569.337890625,-26221.412109375,-34252.640625,-33462.9296875
304304.8952855001,No Event,-36749.41796875,-25113.615234375,-25545.361328125,-10195.033203125,-18576.35546875,-26236.34375,-34259.45703125,-33468.0703125
304304.8992855001,No Event,-36737.125,-25120.1640625,-25517.623046875,-10186.427734375,-18571.841796875,-26344.19140625,-34250.11328125,-33457.12109375
304304.9029163,No Event,-36726.8203125,-25126.84765625,-26057.955078125,-10195.4580078125,-18561.537109375,-26243.8984375,-34240.2578125,-33449.80859375
304304.9032855001,No Event,-36721.27734375,-25129.931640625,-25919.462890625,-10186.740234375,-18562.69921875,-26337.88671875,-34236.1015625,-33440.48828125
304304.9069163,No Event,-36739.60546875,-25116.498046875,-25680.232421875,-10198.453125,-18574.03125,-26231.806640625,-34257.22265625,-33464.8984375
304304.9109163,No Event,-36724.1171875,-25112.23046875,-25550.837890625,-10180.1240234375,-18564.5546875,-26338.69140625,-34243.921875,-33450.59375
304304.91491630004,No Event,-36708.0703125,-25123.046875,-25913.6953125,-10182.8955078125,-18554.83203125,-26364.26171875,-34229.73046875,-33438.58984375
304304.91891630006,No Event,-36708.11328125,-25120.455078125,-26149.57421875,-10188.7744140625,-18547.58984375,-26274.408203125,-34227.5390625,-33439.4609375
304304.9229163001,No Event,-36730.98046875,-25111.783203125,-25807.771484375,-10196.1728515625,-18554.451171875,-26237.349609375,-34247.54296875,-33463.578125
304304.9269163001,No Event,-36725.45703125,-25108.4296875,-25574.3515625,-10182.76171875,-18551.388671875,-26341.75390625,-34243.3203125,-33459.421875
304304.9285909,No Event,-36738.2890625,-25119.314453125,-25588.701171875,-10215.171875,-18580.71484375,-26329.55078125,-34260.9765625,-33466.41796875
304304.9309163001,No Event,-36712.58203125,-25122.734375,-25861.99609375,-10187.1201171875,-18557.892578125,-26386.79296875,-34233.88671875,-33446.5234375
304304.9325909,No Event,-36726.62109375,-25130.78125,-25790.380859375,-10215.060546875,-18570.87890625,-26395.734375,-34248.01171875,-33451.77734375
304304.9349163001,No Event,-36716.67578125,-25134.24609375,-26183.056640625,-10207.7060546875,-18562.990234375,-26309.76953125,-34237.39453125,-33446.30078125
304304.9365909,No Event,-36711.19921875,-25129.775390625,-26172.91015625,-10217.228515625,-18553.9375,-26325.125,-34229.4375,-33432.33203125
304304.93891630013,No Event,-36728.98828125,-25117.59375,-25919.015625,-10212.6015625,-18568.30859375,-26246.78125,-34248.52734375,-33457.41015625
304304.9405909,No Event,-36729.66015625,-25121.70703125,-25996.240234375,-10232.337890625,-18564.77734375,-26238.400390625,-34245.0625,-33449.67578125
304304.94459090004,No Event,-36739.47265625,-25117.974609375,-25603.341796875,-10232.6728515625,-18572.48828125,-26299.599609375,-34255.6796875,-33459.734375
304304.94859090005,No Event,-36722.5078125,-25121.6171875,-25706.181640625,-10225.7216796875,-18561.71484375,-26379.103515625,-34239.4296875,-33441.7421875
304304.95259090007,No Event,-36710.99609375,-25130.3125,-26114.861328125,-10233.298828125,-18549.421875,-26335.00390625,-34225.2578125,-33431.4375
304304.9565909001,No Event,-36725.97265625,-25121.05859375,-26059.65234375,-10244.67578125,-18553.580078125,-26239.361328125,-34233.70703125,-33445.98828125
304304.9605909001,No Event,-36731.5390625,-25101.970703125,-25631.884765625,-10237.1435546875,-18557.423828125,-26264.998046875,-34237.0390625,-33452.37890625
304304.96321119997,No Event,-36711.9375,-25120.1640625,-26041.927734375,-10235.7802734375,-18541.845703125,-26344.369140625,-34219.3359375,-33438.74609375
304304.9645909001,No Event,-36725.4375,-25108.5859375,-25621.22265625,-10231.064453125,-18552.126953125,-26360.3515625,-34232.41015625,-33449.69921875
304304.9672112,No Event,-36720.609375,-25112.833984375,-26110.97265625,-10247.73828125,-18544.392578125,-26241.595703125,-34224.6796875,-33447.6875
304304.9712112,No Event,-36733.68359375,-25098.595703125,-25681.572265625,-10244.2958984375,-18552.41796875,-26242.78125,-34235.2265625,-33460.8515625
304304.9752112,No Event,-36720.140625,-25094.50390625,-25558.66015625,-10226.99609375,-18538.40234375,-26337.865234375,-34219.984375,-33446.75
304304.9792112,No Event,-36709.34375,-25111.71484375,-25946.732421875,-10231.421875,-18521.080078125,-26340.615234375,-34206.39453125,-33431.4375
304304.98321120004,No Event,-36714.484375,-25112.296875,-26144.298828125,-10244.720703125,-18523.62890625,-26249.486328125,-34208.62890625,-33431.078125
304304.98721120006,No Event,-36727.6484375,-25097.8125,-25750.6171875,-10252.1640625,-18537.330078125,-26228.587890625,-34226.95703125,-33445.5859375
304304.9912112001,No Event,-36725.61328125,-25099.287109375,-25529.626953125,-10245.8388671875,-18541.443359375,-26327.94140625,-34229.21484375,-33442.8828125
304304.9952112001,No Event,-36710.88671875,-25114.62109375,-25865.52734375,-10248.6552734375,-18539.36328125,-26354.96484375,-34218.375,-33426.9453125
304304.9978897,No Event,-36713.546875,-25091.5546875,-25825.451171875,-10256.34375,-18525.595703125,-26216.337890625,-34219.71484375,-33430.5859375
304304.9992112001,No Event,-36703.53125,-25113.615234375,-26155.20703125,-10251.203125,-18521.326171875,-26266.5859375,-34210.6875,-33418.921875
304305.0018897,No Event,-36718.57421875,-25086.234375,-25506.71484375,-10253.6396484375,-18545.064453125,-26298.4375,-34223.203125,-33436.46484375
304305.0058897,No Event,-36707.48828125,-25102.015625,-25769.146484375,-10254.01953125,-18536.97265625,-26347.87890625,-34210.796875,-33424.7109375
304305.00988970004,No Event,-36701.609375,-25107.916015625,-26139.896484375,-10261.619140625,-18524.521484375,-26276.30859375,-34199.9140625,-33418.00390625
304305.01388970006,No Event,-36720.2265625,-25096.60546875,-25908.220703125,-10270.1796875,-18532.703125,-26213.43359375,-34214.26171875,-33438.94921875
304305.0178897001,No Event,-36724.96484375,-25087.62109375,-25530.744140625,-10260.61328125,-18537.888671875,-26285.0703125,-34219.89453125,-33448.3359375
304305.0218897001,No Event,-36717.703125,-25104.228515625,-25689.12890625,-10268.279296875,-18542.001953125,-26353.51171875,-34217.66015625,-33443.23828125
304305.0258897001,No Event,-36710.125,-25118.8671875,-26118.4375,-10281.3330078125,-18535.384765625,-26305.4765625,-34211.0,-33436.4453125
304305.0298897001,No Event,-36721.16796875,-25104.361328125,-25996.5546875,-10282.8974609375,-18535.720703125,-26218.193359375,-34218.1953125,-33446.8828125
304305.03357699997,No Event,-36708.13671875,-25088.380859375,-25605.95703125,-10264.5693359375,-18532.3671875,-26341.28515625,-34208.5859375,-33434.85546875
304305.03388970013,No Event,-36722.55078125,-25085.67578125,-25560.13671875,-10270.42578125,-18539.900390625,-26262.47265625,-34221.90625,-33448.91796875
304305.037577,No Event,-36687.125,-25090.7265625,-26042.8671875,-10262.6025390625,-18513.078125,-26299.755859375,-34185.7421875,-33411.96875
304305.041577,No Event,-36698.34765625,-25080.087890625,-26043.716796875,-10271.5205078125,-18516.4765625,-26207.287109375,-34193.36328125,-33424.015625
304305.045577,No Event,-36722.640625,-25074.8359375,-25596.234375,-10279.0087890625,-18537.552734375,-26234.130859375,-34216.8984375,-33447.62109375
304305.049577,No Event,-36715.78125,-25082.12109375,-25541.44921875,-10275.1865234375,-18540.2578125,-26329.28125,-34213.75,-33438.6328125
304305.05357700004,No Event,-36701.16015625,-25097.365234375,-25977.130859375,-10279.43359375,-18530.06640625,-26318.1953125,-34201.7890625,-33419.90234375
304305.05757700006,No Event,-36705.5,-25098.595703125,-26109.98828125,-10286.4736328125,-18525.037109375,-26226.62109375,-34204.25,-33421.46875
304305.0615770001,No Event,-36726.5078125,-25091.62109375,-25683.361328125,-10293.4033203125,-18544.37109375,-26225.546875,-34225.05859375,-33445.67578125
304305.0655770001,No Event,-36720.05078125,-25085.697265625,-25507.2734375,-10286.541015625,-18543.833984375,-26319.3125,-34219.89453125,-33443.88671875
304305.0663536,No Event,-36710.81640625,-25107.3125,-26135.24609375,-10297.5380859375,-18522.466796875,-26251.587890625,-34206.3515625,-33434.09765625
304305.0695770001,No Event,-36706.6171875,-25102.9765625,-25893.310546875,-10290.7431640625,-18528.6796875,-26334.04296875,-34206.68359375,-33430.5859375
304305.0703536,No Event,-36725.234375,-25088.537109375,-25749.0078125,-10299.9521484375,-18529.775390625,-26218.685546875,-34218.0390625,-33449.07421875
304305.07435360004,No Event,-36714.796875,-25075.728515625,-25476.787109375,-10288.3515625,-18527.517578125,-26302.818359375,-34208.80859375,-33438.12109375
304305.07835360005,No Event,-36698.1015625,-25087.642578125,-25794.091796875,-10279.90234375,-18516.005859375,-26333.931640625,-34191.41796875,-33422.02734375
304305.08235360007,No Event,-36696.265625,-25095.17578125,-26131.826171875,-10284.8203125,-18505.634765625,-26253.62109375,-34187.1484375,-33419.3671875
304305.0863536001,No Event,-36714.57421875,-25082.63671875,-25832.201171875,-10295.392578125,-18516.095703125,-26199.865234375,-34205.56640625,-33436.3984375
304305.0903536001,No Event,-36721.5234375,-25082.234375,-25487.671875,-10301.896484375,-18530.712890625,-26284.66796875,-34216.69921875,-33441.62890625
304305.0937929,No Event,-36714.70703125,-25093.9453125,-25642.45703125,-10324.6279296875,-18531.8984375,-26341.955078125,-34218.53125,-33433.8515625
304305.0943536001,No Event,-36707.578125,-25094.638671875,-25726.43359375,-10300.041015625,-18520.431640625,-26340.994140625,-34204.96484375,-33427.078125
304305.0977929,No Event,-36701.54296875,-25105.30078125,-26091.458984375,-10329.27734375,-18518.77734375,-26302.548828125,-34202.05859375,-33417.82421875
304305.09835360013,No Event,-36694.43359375,-25098.86328125,-26128.5859375,-10305.9873046875,-18510.5078125,-26274.85546875,-34192.0,-33414.11328125
304305.1017929,No Event,-36714.99609375,-25093.07421875,-26005.44921875,-10332.33984375,-18530.244140625,-26213.43359375,-34209.2109375,-33430.65625
304305.10235360014,No Event,-36715.578125,-25090.146484375,-25927.732421875,-10311.462890625,-18519.404296875,-26203.93359375,-34210.3046875,-33433.62890625
304305.1057929,No Event,-36729.1015625,-25087.62109375,-25566.88671875,-10336.5869140625,-18548.3046875,-26261.310546875,-34230.69140625,-33453.4296875
304305.10979290004,No Event,-36725.9296875,-25101.1875,-25590.869140625,-10335.826171875,-18543.7890625,-26352.796875,-34227.984375,-33452.359375
304305.11379290005,No Event,-36715.3125,-25115.1796875,-26038.150390625,-10338.9560546875,-18526.244140625,-26326.95703125,-34212.00390625,-33437.80859375
304305.11779290007,No Event,-36710.55078125,-25093.72265625,-26067.767578125,-10329.6796875,-18514.46484375,-26221.322265625,-34200.984375,-33429.828125
304305.1217929001,No Event,-36731.11328125,-25085.384765625,-25617.603515625,-10332.853515625,-18531.943359375,-26235.337890625,-34220.7890625,-33451.30859375
304305.1257929001,No Event,-36724.98828125,-25091.419921875,-25532.77734375,-10322.28125,-18527.29296875,-26335.630859375,-34217.546875,-33446.50390625
304305.1297929001,No Event,-36701.98828125,-25099.48828125,-25957.572265625,-10318.392578125,-18509.681640625,-26327.26953125,-34195.0859375,-33422.765625
304305.2142235,No Event,-36699.46484375,-25090.771484375,-26117.990234375,-10325.0087890625,-18504.740234375,-26233.326171875,-34192.9375,-33421.35546875
304305.2182235,No Event,-36719.15625,-25077.607421875,-25693.8671875,-10327.6455078125,-18519.44921875,-26221.546875,-34213.14453125,-33443.41796875
304305.2222235,No Event,-36719.8046875,-25082.390625,-25498.736328125,-10323.64453125,-18526.064453125,-26319.984375,-34216.4296875,-33445.40625
304305.22622350004,No Event,-36706.34765625,-25101.544921875,-25874.6484375,-10327.265625,-18518.107421875,-26339.408203125,-34205.56640625,-33431.4140625
304305.23022350005,No Event,-36706.21484375,-25102.328125,-26145.88671875,-10334.4853515625,-18512.67578125,-26254.650390625,-34201.5234375,-33431.32421875
304305.23422350007,No Event,-36726.64453125,-25088.759765625,-25781.9765625,-10338.3974609375,-18525.484375,-26219.1328125,-34218.28515625,-33450.1015625
304305.2382235001,No Event,-36732.8359375,-25091.263671875,-25487.962890625,-10335.357421875,-18531.25,-26312.943359375,-34227.47265625,-33455.12890625
304305.2422235001,No Event,-36715.734375,-25104.853515625,-25794.62890625,-10334.2177734375,-18523.203125,-26355.61328125,-34211.82421875,-33437.828125
304305.2462235001,No Event,-36709.54296875,-25111.537109375,-26154.693359375,-10342.0400390625,-18518.666015625,-26284.533203125,-34207.3125,-33430.56640625
304305.247789,No Event,-36723.1796875,-25082.568359375,-25496.478515625,-10336.36328125,-18528.076171875,-26292.333984375,-34221.5703125,-33445.85546875
304305.25022350013,No Event,-36717.90234375,-25087.978515625,-25863.91796875,-10341.548828125,-18521.86328125,-26218.640625,-34216.18359375,-33439.75390625
304305.251789,No Event,-36722.59765625,-25106.931640625,-25709.357421875,-10347.650390625,-18531.138671875,-26353.623046875,-34220.1171875,-33444.2890625
304305.255789,No Event,-36708.0,-25108.162109375,-26126.015625,-10350.400390625,-18518.0625,-26292.625,-34202.75,-33430.6328125
304305.25978900003,No Event,-36716.18359375,-25085.85546875,-25944.943359375,-10354.53515625,-18523.181640625,-26209.119140625,-34209.63671875,-33441.13671875
304305.26378900005,No Event,-36728.296875,-25080.310546875,-25519.478515625,-10354.580078125,-18538.55859375,-26267.904296875,-34223.671875,-33453.453125
304305.26778900006,No Event,-36715.35546875,-25091.3984375,-25626.587890625,-10351.7861328125,-18534.267578125,-26345.576171875,-34213.76953125,-33439.3046875
304305.2717890001,No Event,-36700.6015625,-25103.400390625,-26073.041015625,-10352.92578125,-18516.810546875,-26301.140625,-34198.078125,-33422.921875
304305.2757890001,No Event,-36708.62890625,-25089.810546875,-26014.658203125,-10359.072265625,-18522.689453125,-26211.466796875,-34202.28125,-33430.09765625
304305.2797890001,No Event,-36721.92578125,-25075.439453125,-25562.03515625,-10353.037109375,-18537.3515625,-26245.57421875,-34214.015625,-33445.8984375
304305.2837890001,No Event,-36717.56640625,-25085.630859375,-25550.97265625,-10349.818359375,-18536.8828125,-26332.5,-34211.2890625,-33441.98828125
304305.2844303,No Event,-36702.4375,-25100.3828125,-25998.341796875,-10357.396484375,-18524.701171875,-26310.39453125,-34196.29296875,-33425.42578125
304305.2884303,No Event,-36706.59375,-25093.7890625,-26068.974609375,-10368.5498046875,-18524.72265625,-26217.544921875,-34201.38671875,-33432.48828125
304305.29243030003,No Event,-36719.37890625,-25078.724609375,-25626.341796875,-10369.80078125,-18537.10546875,-26228.140625,-34217.546875,-33447.91015625
304305.29643030005,No Event,-36710.99609375,-25080.6015625,-25517.33203125,-10359.9443359375,-18535.810546875,-26324.119140625,-34212.83203125,-33437.0703125
304305.30043030006,No Event,-36695.6875,-25098.326171875,-25934.05859375,-10358.111328125,-18523.806640625,-26325.66015625,-34199.95703125,-33418.921875
304305.3044303001,No Event,-36691.99609375,-25091.845703125,-26120.740234375,-10358.625,-18512.787109375,-26232.185546875,-34194.68359375,-33414.5625
304305.3084303001,No Event,-36710.03515625,-25078.232421875,-25702.13671875,-10362.4697265625,-18525.953125,-26216.16015625,-34212.18359375,-33435.66015625
304305.3124303001,No Event,-36712.11328125,-25084.513671875,-25486.28515625,-10356.14453125,-18530.46875,-26320.1171875,-34218.15234375,-33440.46875
304305.3164303001,No Event,-36699.12890625,-25104.18359375,-25848.384765625,-10355.49609375,-18518.689453125,-26348.59375,-34204.44921875,-33428.5078125
304305.3179118,No Event,-36724.85546875,-25103.154296875,-25792.03515625,-10374.71875,-18534.22265625,-26223.447265625,-34224.07421875,-33457.7890625
304305.32043030014,No Event,-36698.2578125,-25109.8828125,-26140.185546875,-10363.609375,-18515.828125,-26263.6796875,-34201.76953125,-33427.90625
304305.3219118,No Event,-36725.76953125,-25101.1875,-25486.15234375,-10364.3251953125,-18532.994140625,-26316.318359375,-34224.453125,-33460.2265625
304305.3259118,No Event,-36708.4921875,-25114.6875,-25770.2421875,-10361.1513671875,-18523.0703125,-26361.3125,-34211.2890625,-33444.37890625
304305.32991180004,No Event,-36699.26171875,-25120.09765625,-26143.583984375,-10364.2578125,-18511.4921875,-26292.423828125,-34203.8671875,-33435.796875
304305.33391180006,No Event,-36722.55078125,-25111.603515625,-25887.9921875,-10373.19921875,-18523.3828125,-26232.611328125,-34222.28515625,-33456.3359375
304305.3379118001,No Event,-36736.56640625,-25109.79296875,-25509.486328125,-10371.857421875,-18539.029296875,-26309.544921875,-34235.453125,-33468.47265625
304305.3419118001,No Event,-36717.0078125,-25118.46484375,-25691.36328125,-10365.8896484375,-18533.26171875,-26371.974609375,-34219.46875,-33450.83984375
304305.3445229,No Event,-36714.171875,-25109.279296875,-25614.0703125,-10373.66796875,-18533.775390625,-26353.869140625,-34211.17578125,-33440.421875
304305.3459118001,No Event,-36697.7421875,-25122.689453125,-26119.041015625,-10367.96875,-18517.28125,-26311.556640625,-34197.85546875,-33428.62109375
304305.3485229,No Event,-36698.03125,-25119.6953125,-26060.5703125,-10377.37890625,-18521.080078125,-26316.02734375,-34196.984375,-33424.08203125
304305.3499118001,No Event,-36709.74609375,-25106.955078125,-25963.541015625,-10374.830078125,-18520.8125,-26223.22265625,-34203.17578125,-33438.7890625
304305.35252290004,No Event,-36704.26953125,-25106.5078125,-26029.90234375,-10378.2275390625,-18517.236328125,-26223.55859375,-34199.265625,-33428.8203125
304305.35391180014,No Event,-36720.65234375,-25096.29296875,-25535.6171875,-10371.58984375,-18531.228515625,-26277.291015625,-34214.21875,-33450.390625
304305.35652290005,No Event,-36717.96875,-25093.0078125,-25584.701171875,-10377.1103515625,-18529.015625,-26257.0859375,-34212.33984375,-33441.78515625
304305.36052290007,No Event,-36713.23046875,-25102.126953125,-25556.470703125,-10378.98828125,-18532.591796875,-26349.82421875,-34210.9765625,-33436.51171875
304305.3645229001,No Event,-36694.94921875,-25113.681640625,-25993.939453125,-10384.12890625,-18516.966796875,-26331.763671875,-34194.078125,-33417.7578125
304305.3685229001,No Event,-36695.4609375,-25102.484375,-26081.87109375,-10385.291015625,-18512.474609375,-26235.001953125,-34192.53515625,-33419.56640625
304305.3725229001,No Event,-36717.25390625,-25092.359375,-25638.14453125,-10390.2978515625,-18529.505859375,-26239.3828125,-34211.71484375,-33441.83203125
304305.37652290013,No Event,-36719.66796875,-25102.373046875,-25505.0390625,-10390.5888671875,-18536.435546875,-26341.330078125,-34216.4765625,-33443.86328125
304305.37804489996,No Event,-36702.01171875,-25111.939453125,-26116.337890625,-10396.0419921875,-18517.68359375,-26249.666015625,-34194.4140625,-33424.484375
304305.38052290014,No Event,-36706.63671875,-25121.259765625,-25909.158203125,-10394.298828125,-18527.29296875,-26347.833984375,-34205.1640625,-33429.42578125
304305.3820449,No Event,-36719.82421875,-25094.169921875,-25720.375,-10401.0712890625,-18530.625,-26225.8828125,-34207.734375,-33442.43359375
304305.3860449,No Event,-36719.625,-25092.359375,-25486.888671875,-10396.2431640625,-18531.33984375,-26319.87109375,-34205.56640625,-33439.75390625
304305.3900449,No Event,-36704.11328125,-25107.0,-25818.72265625,-10397.271484375,-18518.890625,-26339.98828125,-34192.0,-33423.30078125
304305.3940449,No Event,-36696.66796875,-25109.435546875,-26129.748046875,-10403.8203125,-18508.138671875,-26259.43359375,-34185.47265625,-33414.16015625
304305.39804490004,No Event,-36709.25390625,-25089.564453125,-25802.31640625,-10411.0849609375,-18524.947265625,-26209.41015625,-34202.55078125,-33426.453125
304305.40204490005,No Event,-36715.48828125,-25091.041015625,-25487.60546875,-10412.8056640625,-18542.380859375,-26305.34375,-34216.40625,-33436.1328125
304305.40604490007,No Event,-36701.83203125,-25106.529296875,-25742.97265625,-10416.5615234375,-18540.482421875,-26353.869140625,-34209.8125,-33425.0234375
304305.4100449001,No Event,-36688.95703125,-25109.369140625,-26129.546875,-10413.2978515625,-18524.298828125,-26282.96875,-34196.203125,-33411.6328125
304305.4125155,No Event,-36718.75390625,-25090.236328125,-25503.162109375,-10424.9658203125,-18551.298828125,-26291.708984375,-34224.34375,-33444.37890625
304305.4140449001,No Event,-36706.3046875,-25094.302734375,-25892.126953125,-10420.6962890625,-18534.044921875,-26215.01953125,-34211.109375,-33429.984375
304305.4165155,No Event,-36705.453125,-25100.919921875,-25668.85546875,-10422.8193359375,-18543.677734375,-26358.98828125,-34213.27734375,-33431.32421875
304305.4205155,No Event,-36692.48828125,-25111.3359375,-26096.98046875,-10425.1220703125,-18519.29296875,-26302.05859375,-34199.15234375,-33417.890625
304305.4245155,No Event,-36711.2421875,-25103.982421875,-25975.1640625,-10433.1904296875,-18524.388671875,-26220.361328125,-34211.78125,-33436.66796875
304305.42851550004,No Event,-36728.07421875,-25097.74609375,-25547.75390625,-10431.73828125,-18550.986328125,-26278.185546875,-34228.09765625,-33457.54296875
304305.43251550006,No Event,-36714.59375,-25097.142578125,-25595.36328125,-10425.9267578125,-18550.115234375,-26357.826171875,-34217.97265625,-33448.0
304305.43651550007,No Event,-36693.80859375,-25104.0703125,-26037.32421875,-10424.0263671875,-18529.349609375,-26319.939453125,-34196.8046875,-33427.703125
304305.4405155001,No Event,-36705.921875,-25097.298828125,-26033.478515625,-10433.97265625,-18530.2890625,-26229.705078125,-34205.92578125,-33438.27734375
304305.4445155001,No Event,-36725.61328125,-25084.9609375,-25587.205078125,-10431.6484375,-18546.0703125,-26256.99609375,-34219.984375,-33454.68359375
304305.44620969996,No Event,-36692.19921875,-25099.466796875,-25968.123046875,-10419.35546875,-18520.69921875,-26326.287109375,-34194.390625,-33416.328125
304305.4485155001,No Event,-36718.4609375,-25087.642578125,-25536.0859375,-10419.2880859375,-18538.447265625,-26345.263671875,-34210.26171875,-33440.3984375
304305.4502097,No Event,-36690.9921875,-25093.431640625,-26081.84765625,-10419.3330078125,-18517.884765625,-26231.046875,-34198.234375,-33419.41015625
304305.4542097,No Event,-36710.21484375,-25080.78125,-25649.87890625,-10420.2939453125,-18528.5,-26232.208984375,-34213.7265625,-33438.41015625
304305.4582097,No Event,-36713.1875,-25086.97265625,-25501.8203125,-10420.875,-18529.908203125,-26339.8984375,-34212.5625,-33441.25
304305.4622097,No Event,-36705.74609375,-25107.447265625,-25891.859375,-10427.8935546875,-18525.349609375,-26352.572265625,-34204.33984375,-33432.48828125
304305.46620970004,No Event,-36699.88671875,-25104.361328125,-26117.208984375,-10435.224609375,-18516.453125,-26261.421875,-34200.8515625,-33424.8671875
304305.47020970006,No Event,-36702.16796875,-25080.490234375,-25730.748046875,-10432.20703125,-18516.609375,-26230.15234375,-34211.0,-33433.89453125
304305.4738037,No Event,-36703.0625,-25085.408203125,-25823.060546875,-10435.515625,-18526.935546875,-26228.810546875,-34215.19921875,-33439.83984375
304305.47420970007,No Event,-36707.3515625,-25083.5078125,-25478.75390625,-10427.916015625,-18533.306640625,-26329.28125,-34221.6171875,-33443.26171875
304305.4778037,No Event,-36706.34765625,-25079.685546875,-25497.8203125,-10422.998046875,-18531.787109375,-26322.599609375,-34219.203125,-33444.15625
304305.4782097001,No Event,-36689.16015625,-25094.50390625,-25811.50390625,-10421.2548828125,-18519.962890625,-26361.9609375,-34202.1015625,-33424.39453125
304305.48180370004,No Event,-36695.93359375,-25092.26953125,-25731.060546875,-10422.439453125,-18527.740234375,-26369.939453125,-34208.83203125,-33433.875
304305.4822097001,No Event,-36682.65625,-25096.427734375,-26130.955078125,-10429.7041015625,-18509.412109375,-26275.123046875,-34196.3125,-33418.36328125
304305.48580370005,No Event,-36688.578125,-25099.578125,-26118.326171875,-10426.708984375,-18517.50390625,-26300.76171875,-34196.9609375,-33425.359375
304305.48980370007,No Event,-36697.140625,-25079.73046875,-25910.87890625,-10432.8779296875,-18520.8125,-26229.236328125,-34205.90234375,-33434.54296875
304305.4938037001,No Event,-36705.96875,-25070.052734375,-25514.11328125,-10429.4130859375,-18526.490234375,-26299.80078125,-34215.625,-33444.53515625
304305.4978037001,No Event,-36693.2734375,-25080.466796875,-25654.572265625,-10422.8642578125,-18517.548828125,-26369.359375,-34203.578125,-33432.01953125
304305.5018037001,No Event,-36678.00390625,-25087.62109375,-26082.564453125,-10427.0888671875,-18503.04296875,-26309.45703125,-34188.0,-33417.15625
304305.5058037001,No Event,-36693.80859375,-25080.04296875,-25984.931640625,-10435.716796875,-18515.3125,-26226.91015625,-34200.31640625,-33432.66796875
304305.50958089996,No Event,-36690.76953125,-25070.8125,-25582.533203125,-10423.3115234375,-18521.236328125,-26361.9375,-34204.29296875,-33431.75
304305.50980370014,No Event,-36697.40625,-25062.541015625,-25547.484375,-10425.546875,-18524.701171875,-26274.341796875,-34208.33984375,-33440.3125
304305.5135809,No Event,-36683.66015625,-25090.19140625,-26030.013671875,-10434.9345703125,-18518.77734375,-26330.265625,-34197.25390625,-33421.46875
304305.5175809,No Event,-36681.8046875,-25072.130859375,-26057.3515625,-10426.955078125,-18512.095703125,-26231.29296875,-34192.19921875,-33418.203125
304305.5215809,No Event,-36701.87890625,-25061.0,-25612.640625,-10429.078125,-18526.265625,-26253.173828125,-34211.55859375,-33437.828125
304305.5255809,No Event,-36702.34765625,-25072.265625,-25539.640625,-10430.44140625,-18530.51171875,-26355.412109375,-34213.234375,-33438.25390625
304305.52958090004,No Event,-36682.25390625,-25084.6484375,-25964.3671875,-10430.7099609375,-18514.77734375,-26345.15234375,-34194.01171875,-33417.22265625
304305.53358090005,No Event,-36692.3125,-25085.33984375,-26098.701171875,-10447.7861328125,-18522.599609375,-26249.306640625,-34204.11328125,-33427.99609375
304305.5355465,No Event,-36682.54296875,-25082.099609375,-26128.451171875,-10442.6904296875,-18513.546875,-26265.712890625,-34193.765625,-33415.3203125
304305.53758090007,No Event,-36705.609375,-25067.19140625,-25679.44921875,-10449.2392578125,-18536.056640625,-26246.40234375,-34219.46875,-33444.06640625
304305.5395465,No Event,-36704.08984375,-25068.375,-25758.75390625,-10450.982421875,-18530.2890625,-26232.208984375,-34210.953125,-33435.7734375
304305.5415809001,No Event,-36700.15625,-25065.783203125,-25500.724609375,-10437.125,-18536.078125,-26344.525390625,-34215.15625,-33438.7890625
304305.54354650003,No Event,-36707.84375,-25067.75,-25492.0078125,-10443.8974609375,-18536.501953125,-26329.416015625,-34213.27734375,-33441.4296875
304305.5455809001,No Event,-36689.359375,-25087.017578125,-25879.587890625,-10437.99609375,-18526.466796875,-26360.1953125,-34205.03125,-33425.1796875
304305.54754650005,No Event,-36696.3125,-25083.216796875,-25795.076171875,-10444.3447265625,-18527.607421875,-26362.943359375,-34201.34375,-33430.8125
304305.55154650006,No Event,-36684.15234375,-25079.55078125,-26129.14453125,-10441.818359375,-18506.505859375,-26275.861328125,-34183.73046875,-33417.734375
304305.5555465001,No Event,-36703.15234375,-25066.1171875,-25839.5546875,-10448.61328125,-18522.890625,-26220.115234375,-34201.85546875,-33438.546875
304305.5595465001,No Event,-36713.3671875,-25067.794921875,-25494.623046875,-10450.2900390625,-18541.599609375,-26313.568359375,-34219.3359375,-33451.1953125
304305.5635465001,No Event,-36702.99609375,-25083.283203125,-25718.341796875,-10449.41796875,-18534.15625,-26374.833984375,-34210.3515625,-33441.94140625
304305.5675465001,No Event,-36686.1640625,-25087.0625,-26113.9453125,-10451.4072265625,-18519.001953125,-26301.611328125,-34192.984375,-33427.14453125
304305.5711442,No Event,-36712.94140625,-25066.341796875,-25519.634765625,-10462.8291015625,-18546.44921875,-26293.51953125,-34217.81640625,-33452.55859375
304305.57154650014,No Event,-36702.8828125,-25074.5,-25921.564453125,-10465.0419921875,-18531.18359375,-26224.33984375,-34206.28125,-33443.9765625
304305.5751442,No Event,-36699.9765625,-25074.923828125,-25640.826171875,-10458.1796875,-18538.73828125,-26366.609375,-34207.46875,-33438.92578125
304305.5791442,No Event,-36683.2578125,-25080.69140625,-26072.125,-10460.482421875,-18522.466796875,-26310.1484375,-34187.0390625,-33420.41796875
304305.58314420003,No Event,-36695.5078125,-25067.50390625,-25996.8671875,-10467.1650390625,-18527.427734375,-26217.12109375,-34193.80859375,-33430.36328125
304305.58714420005,No Event,-36713.38671875,-25059.30078125,-25559.353515625,-10468.9091796875,-18541.041015625,-26262.5390625,-34208.18359375,-33447.23828125
304305.59114420007,No Event,-36704.71484375,-25065.513671875,-25573.501953125,-10462.13671875,-18534.8046875,-26355.6796875,-34200.08984375,-33436.5546875
304305.5951442001,No Event,-36689.78515625,-25077.673828125,-26010.814453125,-10459.9013671875,-18513.5703125,-26323.984375,-34184.15625,-33419.5234375
304305.5991442001,No Event,-36691.796875,-25070.521484375,-26054.35546875,-10464.2373046875,-18514.732421875,-26226.798828125,-34189.16015625,-33423.0546875
304305.6031442001,No Event,-36702.90625,-25054.5390625,-25619.546875,-10464.8408203125,-18532.591796875,-26246.333984375,-34201.69921875,-33435.68359375
304305.6071442001,No Event,-36705.3203125,-25066.05078125,-25530.6328125,-10466.427734375,-18538.42578125,-26352.28125,-34208.16015625,-33440.421875
304305.69259379996,No Event,-36690.546875,-25083.84375,-25945.033203125,-10467.634765625,-18526.82421875,-26347.498046875,-34196.359375,-33426.40625
304305.6965938,No Event,-36693.80859375,-25082.0546875,-26106.123046875,-10475.279296875,-18524.58984375,-26248.48046875,-34199.15234375,-33430.41015625
304305.7005938,No Event,-36712.984375,-25070.4765625,-25697.62109375,-10481.9404296875,-18541.755859375,-26243.67578125,-34221.7265625,-33451.3515625
304305.7045938,No Event,-36711.1328125,-25071.99609375,-25508.48046875,-10474.7431640625,-18545.48828125,-26349.935546875,-34223.29296875,-33448.2890625
304305.7085938,No Event,-36688.0625,-25082.412109375,-25869.841796875,-10472.0830078125,-18531.853515625,-26360.037109375,-34204.7421875,-33425.0234375
304305.71259380004,No Event,-36686.1875,-25083.41796875,-26136.9453125,-10479.4140625,-18526.802734375,-26263.61328125,-34199.109375,-33422.49609375
304305.71659380005,No Event,-36709.6328125,-25074.142578125,-25782.0,-10489.875,-18546.44921875,-26233.28125,-34220.9453125,-33447.9765625
304305.72059380007,No Event,-36709.85546875,-25069.359375,-25502.625,-10481.5380859375,-18549.98046875,-26330.287109375,-34221.90625,-33448.984375
304305.7245938001,No Event,-36699.46484375,-25084.9609375,-25790.537109375,-10484.6669921875,-18545.890625,-26367.078125,-34211.625,-33438.5234375
304305.7280988,No Event,-36698.5703125,-25062.654296875,-25861.662109375,-10490.478515625,-18538.291015625,-26217.74609375,-34208.09375,-33437.91796875
304305.7285938001,No Event,-36689.91796875,-25086.525390625,-26138.107421875,-10490.232421875,-18534.8046875,-26284.287109375,-34201.07421875,-33429.671875
304305.7320988,No Event,-36709.43359375,-25059.033203125,-25504.7265625,-10492.154296875,-18556.240234375,-26299.822265625,-34220.65625,-33449.296875
304305.73609880003,No Event,-36704.78125,-25079.193359375,-25702.5390625,-10505.54296875,-18568.2421875,-26365.71484375,-34221.01171875,-33446.45703125
304305.74009880004,No Event,-36688.69140625,-25083.328125,-26112.515625,-10509.7451171875,-18556.10546875,-26298.369140625,-34203.69140625,-33429.6484375
304305.74409880006,No Event,-36700.35546875,-25066.07421875,-25947.693359375,-10521.7041015625,-18566.56640625,-26216.294921875,-34212.5625,-33441.8984375
304305.7480988001,No Event,-36724.09375,-25066.966796875,-25538.923828125,-10534.130859375,-18598.05859375,-26291.91015625,-34235.5859375,-33467.6484375
304305.7520988001,No Event,-36708.24609375,-25071.05859375,-25634.791015625,-10530.7119140625,-18592.359375,-26368.95703125,-34219.44921875,-33450.32421875
304305.7560988001,No Event,-36684.5546875,-25075.28125,-26068.4140625,-10540.92578125,-18585.140625,-26313.255859375,-34199.7578125,-33424.26171875
304305.7600988001,No Event,-36688.53515625,-25059.703125,-26023.3984375,-10563.703125,-18602.6640625,-26216.919921875,-34208.18359375,-33426.4296875
304305.7626028,No Event,-36709.25390625,-25073.94140625,-25589.841796875,-10612.541015625,-18668.220703125,-26362.1171875,-34247.20703125,-33447.46484375
304305.76409880014,No Event,-36710.37109375,-25057.87109375,-25588.857421875,-10589.7646484375,-18643.724609375,-26260.52734375,-34237.59765625,-33448.87109375
304305.7666028,No Event,-36696.69140625,-25091.822265625,-26035.400390625,-10637.2626953125,-18674.5703125,-26343.162109375,-34242.0234375,-33431.1015625
304305.7706028,No Event,-36700.22265625,-25084.603515625,-26121.03125,-10657.1328125,-18683.0625,-26249.0390625,-34246.71875,-33432.21875
304305.7746028,No Event,-36727.13671875,-25081.16015625,-25692.75,-10680.3564453125,-18718.982421875,-26267.412109375,-34275.19140625,-33460.65234375
304305.77860280004,No Event,-36729.97265625,-25091.732421875,-25577.97265625,-10686.8828125,-18728.638671875,-26371.50390625,-34281.00390625,-33464.13671875
304305.78260280006,No Event,-36717.48046875,-25109.748046875,-25985.466796875,-10695.8017578125,-18712.455078125,-26369.716796875,-34268.375,-33449.51953125
304305.7866028001,No Event,-36716.29296875,-25105.546875,-26173.87109375,-10697.7236328125,-18703.40234375,-26273.4921875,-34266.41015625,-33447.46484375
304305.7879121,No Event,-36708.9609375,-25104.18359375,-26192.9140625,-10708.5419921875,-18713.595703125,-26290.658203125,-34268.0625,-33444.625
304305.7906028001,No Event,-36729.19140625,-25085.8984375,-25771.248046875,-10702.328125,-18728.236328125,-26256.974609375,-34280.578125,-33461.72265625
304305.7919121,No Event,-36725.99609375,-25087.75390625,-25854.1953125,-10708.51953125,-18720.279296875,-26247.005859375,-34284.84765625,-33462.7734375
304305.7946028001,No Event,-36731.671875,-25089.85546875,-25555.46484375,-10695.443359375,-18739.1875,-26361.021484375,-34288.42578125,-33466.6875
304305.7959121,No Event,-36729.70703125,-25088.380859375,-25552.6484375,-10695.130859375,-18720.123046875,-26343.431640625,-34289.07421875,-33466.6875
304305.7986028001,No Event,-36718.23828125,-25108.09375,-25907.4375,-10702.216796875,-18727.744140625,-26385.18359375,-34278.12109375,-33453.51953125
304305.7999121,No Event,-36716.5390625,-25105.345703125,-25821.96484375,-10688.2021484375,-18709.68359375,-26389.85546875,-34274.90234375,-33450.94921875
304305.80391210003,No Event,-36702.61328125,-25106.84375,-26185.60546875,-10677.25,-18683.64453125,-26310.70703125,-34258.54296875,-33437.76171875
304305.80791210005,No Event,-36718.3515625,-25092.44921875,-25934.37109375,-10675.841796875,-18686.4375,-26245.486328125,-34274.41015625,-33456.984375
304305.81191210006,No Event,-36730.0390625,-25087.62109375,-25558.7734375,-10674.052734375,-18699.044921875,-26327.025390625,-34285.96484375,-33466.796875
304305.8159121001,No Event,-36717.34375,-25098.68359375,-25727.39453125,-10675.193359375,-18693.748046875,-26389.2734375,-34278.03125,-33453.4296875
304305.8199121001,No Event,-36697.453125,-25101.166015625,-26145.6171875,-10669.671875,-18673.810546875,-26322.77734375,-34257.15625,-33431.03515625
304305.8229166,No Event,-36716.94140625,-25068.330078125,-25577.59375,-10639.765625,-18664.779296875,-26291.1953125,-34266.83203125,-33449.02734375
304305.8239121001,No Event,-36706.63671875,-25082.0546875,-26004.51171875,-10661.24609375,-18666.9921875,-26234.935546875,-34258.33984375,-33438.76953125
304305.8269166,No Event,-36710.2578125,-25079.349609375,-25643.955078125,-10640.66015625,-18660.689453125,-26374.56640625,-34260.75390625,-33444.78125
304305.8309166,No Event,-36694.7265625,-25089.966796875,-26081.2890625,-10640.9052734375,-18636.50390625,-26331.5390625,-34242.46875,-33427.4140625
304305.8349166,No Event,-36708.0,-25083.84375,-26065.888671875,-10645.509765625,-18635.3203125,-26240.58984375,-34252.73046875,-33438.12109375
304305.83891660004,No Event,-36723.46875,-25072.17578125,-25625.693359375,-10637.10546875,-18648.328125,-26277.89453125,-34267.37109375,-33455.1953125
304305.84291660006,No Event,-36719.7578125,-25080.2890625,-25582.845703125,-10626.779296875,-18644.619140625,-26372.935546875,-34262.5859375,-33452.89453125
304305.8469166001,No Event,-36702.48046875,-25093.498046875,-26015.1953125,-10620.5654296875,-18622.064453125,-26351.232421875,-34243.09765625,-33433.6953125
304305.8509166001,No Event,-36705.09765625,-25084.849609375,-26116.5390625,-10625.5048828125,-18617.4609375,-26252.212890625,-34242.984375,-33435.28125
304305.8549166001,No Event,-36721.27734375,-25071.99609375,-25690.06640625,-10628.4560546875,-18636.59375,-26263.658203125,-34262.5859375,-33456.47265625
304305.85730659997,No Event,-36697.3828125,-25086.66015625,-25932.740234375,-10614.2626953125,-18614.5546875,-26360.126953125,-34240.99609375,-33431.90625
304305.8589166001,No Event,-36718.8203125,-25075.39453125,-25544.580078125,-10620.185546875,-18635.365234375,-26361.625,-34262.87890625,-33454.75
304305.8613066,No Event,-36694.546875,-25083.26171875,-26144.634765625,-10617.1005859375,-18602.060546875,-26268.931640625,-34233.12890625,-33430.54296875
304305.8653066,No Event,-36712.7421875,-25069.134765625,-25752.583984375,-10615.3349609375,-18612.208984375,-26247.18359375,-34246.984375,-33451.1953125
304305.8693066,No Event,-36716.875,-25072.599609375,-25510.58203125,-10606.841796875,-18615.583984375,-26347.3203125,-34252.9296875,-33455.578125
304305.8733066,No Event,-36700.1328125,-25086.189453125,-25844.875,-10600.2255859375,-18600.875,-26371.99609375,-34238.15625,-33437.8515625
304305.87730660004,No Event,-36686.8359375,-25082.2109375,-26154.916015625,-10596.3359375,-18588.716796875,-26277.962890625,-34224.296875,-33426.2734375
304305.88130660006,No Event,-36709.23046875,-25070.56640625,-25828.759765625,-10600.8515625,-18600.65234375,-26227.6484375,-34241.0625,-33446.2578125
304305.8853066001,No Event,-36712.3828125,-25065.73828125,-25504.81640625,-10590.099609375,-18597.814453125,-26322.888671875,-34243.51953125,-33448.55859375
304305.8893066001,No Event,-36700.71484375,-25082.30078125,-25751.892578125,-10591.6201171875,-18592.2265625,-26371.21484375,-34232.56640625,-33437.875
304305.8923454,No Event,-36719.82421875,-25088.783203125,-25913.5390625,-10613.189453125,-18598.193359375,-26236.521484375,-34239.8984375,-33453.2734375
304305.8933066001,No Event,-36700.84765625,-25098.013671875,-26135.939453125,-10604.427734375,-18589.208984375,-26301.3203125,-34225.90625,-33436.69140625
304305.8963454,No Event,-36719.04296875,-25076.244140625,-25525.111328125,-10597.296875,-18598.41796875,-26309.6796875,-34241.93359375,-33450.97265625
304305.90034540003,No Event,-36707.53125,-25090.638671875,-25675.42578125,-10584.0205078125,-18589.140625,-26378.65625,-34231.7421875,-33438.45703125
304305.90434540005,No Event,-36696.24609375,-25103.244140625,-26100.109375,-10581.3828125,-18573.271484375,-26323.3359375,-34215.9375,-33425.46875
304305.90834540006,No Event,-36701.87890625,-25085.453125,-25986.830078125,-10588.9375,-18571.68359375,-26233.818359375,-34218.93359375,-33432.44140625
304305.9123454001,No Event,-36710.1484375,-25070.69921875,-25553.587890625,-10582.076171875,-18580.1328125,-26280.443359375,-34227.71875,-33442.94921875
304305.9163454001,No Event,-36709.3203125,-25085.7421875,-25600.8828125,-10580.3994140625,-18582.615234375,-26366.474609375,-34226.15234375,-33440.2421875
304305.91855309997,No Event,-36698.12109375,-25073.560546875,-25543.73046875,-10578.9013671875,-18574.27734375,-26352.70703125,-34216.3203125,-33434.58984375
304305.9203454001,No Event,-36691.328125,-25095.353515625,-26038.3515625,-10576.30859375,-18561.1796875,-26326.623046875,-34204.515625,-33420.26171875
304305.9225531,No Event,-36680.734375,-25087.822265625,-25969.642578125,-10577.001953125,-18557.333984375,-26336.234375,-34201.25390625,-33416.6640625
304305.9243454001,No Event,-36691.05859375,-25081.4296875,-26046.64453125,-10582.298828125,-18559.390625,-26231.984375,-34206.75390625,-33423.66015625
304305.9265531,No Event,-36683.19140625,-25081.71875,-26099.70703125,-10578.9013671875,-18551.322265625,-26238.4453125,-34200.08984375,-33417.1328125
304305.92834540014,No Event,-36706.5703125,-25070.3203125,-25606.42578125,-10585.1376953125,-18576.892578125,-26260.55078125,-34223.4921875,-33442.2109375
304305.9305531,No Event,-36700.71484375,-25064.46484375,-25668.384765625,-10576.80078125,-18563.75,-26236.052734375,-34214.28515625,-33435.73046875
304305.9345531,No Event,-36703.57421875,-25071.705078125,-25501.955078125,-10572.017578125,-18568.30859375,-26339.787109375,-34217.8828125,-33438.6796875
304305.93855310004,No Event,-36689.0703125,-25087.84375,-25887.119140625,-10571.3017578125,-18555.009765625,-26349.64453125,-34202.68359375,-33422.09375
304305.94255310006,No Event,-36683.48046875,-25081.919921875,-26126.640625,-10571.861328125,-18542.650390625,-26256.548828125,-34192.9375,-33415.43359375
304305.9465531001,No Event,-36707.9140625,-25071.818359375,-25747.578125,-10581.4501953125,-18562.095703125,-26228.87890625,-34215.515625,-33441.359375
304305.9505531001,No Event,-36713.14453125,-25076.35546875,-25488.767578125,-10581.583984375,-18574.298828125,-26331.0703125,-34224.96875,-33446.7265625
304305.9542618,No Event,-36697.05078125,-25099.98046875,-26144.947265625,-10595.8447265625,-18557.044921875,-26286.412109375,-34208.60546875,-33430.65625
304305.9545531001,No Event,-36697.33984375,-25091.62109375,-25811.302734375,-10583.796875,-18561.3125,-26368.666015625,-34210.796875,-33430.98828125
304305.9582618,No Event,-36711.82421875,-25081.96484375,-25844.47265625,-10594.3466796875,-18564.21875,-26234.265625,-34220.41015625,-33445.09375
304305.9622618,No Event,-36720.83203125,-25078.34375,-25496.658203125,-10583.484375,-18569.650390625,-26320.54296875,-34225.50390625,-33455.0859375
304305.96626180003,No Event,-36716.3828125,-25098.1484375,-25723.884765625,-10584.646484375,-18569.158203125,-26376.66796875,-34219.5390625,-33450.75
304305.97026180004,No Event,-36696.9609375,-25098.86328125,-26119.578125,-10584.802734375,-18554.607421875,-26301.923828125,-34204.5390625,-33433.62890625
304305.97426180006,No Event,-36704.9609375,-25077.80859375,-25918.0546875,-10583.0146484375,-18554.787109375,-26223.291015625,-34212.83203125,-33445.453125
304305.9782618001,No Event,-36716.8515625,-25071.6171875,-25513.689453125,-10580.466796875,-18567.884765625,-26293.630859375,-34226.7578125,-33457.453125
304305.9822618001,No Event,-36711.62109375,-25087.84375,-25642.859375,-10579.9970703125,-18566.990234375,-26367.63671875,-34221.390625,-33448.87109375
304305.9862618001,No Event,-36695.7734375,-25095.95703125,-26080.841796875,-10578.2978515625,-18549.6015625,-26314.955078125,-34204.26953125,-33431.52734375
304305.98771789996,No Event,-36724.6328125,-25076.66796875,-25555.8671875,-10590.6142578125,-18571.884765625,-26271.14453125,-34229.4375,-33463.82421875
304305.9902618001,No Event,-36708.78515625,-25085.564453125,-25997.224609375,-10589.697265625,-18556.373046875,-26224.33984375,-34213.32421875,-33445.51953125
304305.9917179,No Event,-36713.27734375,-25082.724609375,-25576.900390625,-10574.5205078125,-18563.66015625,-26362.33984375,-34220.23046875,-33452.94140625
304305.9957179,No Event,-36698.12109375,-25096.515625,-26017.072265625,-10582.5673828125,-18549.869140625,-26327.91796875,-34205.45703125,-33435.28125
304305.9997179,No Event,-36707.2421875,-25089.029296875,-26055.71875,-10595.8896484375,-18545.623046875,-26233.146484375,-34208.4296875,-33441.98828125
304306.0037179,No Event,-36717.58984375,-25070.185546875,-25611.3671875,-10587.8203125,-18551.568359375,-26250.1796875,-34215.91796875,-33452.0234375
304306.00771790004,No Event,-36716.40625,-25078.1875,-25523.033203125,-10584.8251953125,-18557.333984375,-26345.93359375,-34217.97265625,-33449.87890625
304306.01171790005,No Event,-36701.765625,-25093.56640625,-25942.57421875,-10585.1826171875,-18544.28125,-26338.0,-34204.58203125,-33431.99609375
304306.01571790007,No Event,-36706.16796875,-25090.48046875,-26104.06640625,-10594.369140625,-18542.650390625,-26242.712890625,-34205.74609375,-33437.00390625
304306.0197179001,No Event,-36722.26171875,-25072.30859375,-25683.830078125,-10590.033203125,-18551.634765625,-26231.0234375,-34218.5078125,-33455.44140625
304306.02104719996,No Event,-36705.38671875,-25088.3125,-25863.875,-10589.384765625,-18547.232421875,-26345.93359375,-34204.29296875,-33434.38671875
304306.0237179001,No Event,-36719.69140625,-25071.1015625,-25489.125,-10580.17578125,-18551.3671875,-26327.8515625,-34216.7890625,-33450.30078125
304306.0250472,No Event,-36697.40625,-25084.669921875,-26130.462890625,-10595.93359375,-18539.251953125,-26253.48828125,-34197.38671875,-33427.28125
304306.0290472,No Event,-36724.8984375,-25077.091796875,-25766.890625,-10606.1484375,-18559.5703125,-26223.08984375,-34222.44140625,-33452.44921875
304306.0330472,No Event,-36729.546875,-25075.841796875,-25485.19140625,-10601.6787109375,-18566.498046875,-26322.46484375,-34227.91796875,-33457.453125
304306.0370472,No Event,-36707.30859375,-25082.435546875,-25785.912109375,-10592.1337890625,-18547.5,-26361.55859375,-34205.72265625,-33436.0625
304306.04104720004,No Event,-36702.7265625,-25089.20703125,-26128.451171875,-10598.99609375,-18538.671875,-26276.173828125,-34197.65625,-33431.59375
304306.04504720005,No Event,-36715.80078125,-25070.923828125,-25848.2734375,-10600.560546875,-18544.818359375,-26214.505859375,-34210.28515625,-33446.34765625
304306.04904720007,No Event,-36727.984375,-25071.4375,-25488.296875,-10599.443359375,-18557.357421875,-26299.80078125,-34223.91796875,-33459.421875
304306.0530472001,No Event,-36710.75,-25081.138671875,-25696.861328125,-10597.4765625,-18551.45703125,-26359.994140625,-34210.86328125,-33442.7265625
304306.0561833,No Event,-36699.75390625,-25066.744140625,-25928.873046875,-10606.751953125,-18544.818359375,-26210.572265625,-34205.1875,-33432.59765625
304306.0570472001,No Event,-36693.09375,-25085.541015625,-26105.96484375,-10603.5107421875,-18541.912109375,-26293.005859375,-34197.140625,-33425.71484375
304306.0601833,No Event,-36718.28515625,-25066.185546875,-25512.482421875,-10612.384765625,-18562.876953125,-26274.162109375,-34223.8046875,-33448.53515625
304306.0641833,No Event,-36710.81640625,-25079.171875,-25618.162109375,-10606.7294921875,-18554.361328125,-26352.169921875,-34214.5078125,-33438.38671875
304306.0681833,No Event,-36691.640625,-25086.123046875,-26063.02734375,-10599.6669921875,-18531.31640625,-26303.3984375,-34192.4921875,-33418.8515625
304306.07218330004,No Event,-36702.4140625,-25075.080078125,-26007.013671875,-10601.9013671875,-18529.462890625,-26213.880859375,-34199.28515625,-33430.921875
304306.07618330006,No Event,-36719.3125,-25066.162109375,-25560.203125,-10600.203125,-18543.0078125,-26257.82421875,-34217.7734375,-33453.54296875
304306.0801833001,No Event,-36715.95703125,-25078.814453125,-25558.6171875,-10600.5830078125,-18546.78515625,-26350.60546875,-34219.15625,-33452.4921875
304306.0841833001,No Event,-36701.4296875,-25097.1875,-26011.150390625,-10605.3212890625,-18534.55859375,-26331.517578125,-34207.19921875,-33436.80078125
304306.0881833001,No Event,-36702.2109375,-25085.943359375,-26079.2109375,-10608.96484375,-18532.30078125,-26234.623046875,-34205.859375,-33438.45703125
304306.0921833001,No Event,-36714.88671875,-25068.64453125,-25630.455078125,-10607.6689453125,-18547.25390625,-26241.3046875,-34219.203125,-33453.296875
304306.1692222,No Event,-36712.515625,-25075.70703125,-25512.794921875,-10600.11328125,-18552.841796875,-26338.447265625,-34219.71484375,-33451.6640625
304306.1732222,No Event,-36695.28515625,-25091.53125,-25927.263671875,-10602.9072265625,-18535.005859375,-26337.150390625,-34202.2578125,-33433.671875
304306.1772222,No Event,-36695.23828125,-25088.87109375,-26115.77734375,-10614.3291015625,-18529.505859375,-26246.849609375,-34200.671875,-33432.48828125
304306.18122220004,No Event,-36709.87890625,-25070.8125,-25703.12109375,-10612.8984375,-18542.404296875,-26231.806640625,-34214.9765625,-33447.30859375
304306.18522220006,No Event,-36713.7890625,-25075.169921875,-25481.5703125,-10609.1884765625,-18553.892578125,-26327.470703125,-34223.359375,-33452.0234375
304306.1892222001,No Event,-36694.0546875,-25087.53125,-25842.998046875,-10604.673828125,-18536.501953125,-26347.923828125,-34206.75390625,-33432.265625
304306.1932222001,No Event,-36689.5390625,-25090.19140625,-26136.119140625,-10613.099609375,-18531.853515625,-26261.533203125,-34204.29296875,-33428.59765625
304306.1972222001,No Event,-36702.5703125,-25070.8125,-25786.224609375,-10619.0458984375,-18545.443359375,-26217.568359375,-34219.55859375,-33442.96875
304306.2012222001,No Event,-36707.421875,-25066.474609375,-25473.92578125,-10610.73046875,-18553.9140625,-26306.125,-34224.609375,-33446.97265625
304306.20522220014,No Event,-36697.5625,-25083.171875,-25749.208984375,-10610.73046875,-18543.23046875,-26348.392578125,-34209.97265625,-33433.08984375
304306.20558059996,No Event,-36688.890625,-25087.017578125,-26121.791015625,-10615.0,-18527.16015625,-26271.703125,-34194.34765625,-33420.39453125
304306.20958059997,No Event,-36703.6640625,-25068.888671875,-25867.048828125,-10617.1904296875,-18533.6640625,-26206.28125,-34205.56640625,-33435.3046875
304306.2135806,No Event,-36710.7734375,-25060.59765625,-25484.072265625,-10611.625,-18544.99609375,-26280.17578125,-34215.22265625,-33445.296875
304306.2175806,No Event,-36698.94921875,-25070.72265625,-25657.8359375,-10605.947265625,-18535.943359375,-26342.513671875,-34200.2265625,-33431.97265625
304306.2215806,No Event,-36675.45703125,-25072.15234375,-26085.267578125,-10601.857421875,-18515.693359375,-26281.13671875,-34178.8125,-33409.8671875
304306.22558060003,No Event,-36695.91015625,-25066.966796875,-25940.697265625,-10616.1845703125,-18527.451171875,-26203.666015625,-34199.9140625,-33431.19140625
304306.22958060005,No Event,-36709.1875,-25058.853515625,-25510.404296875,-10617.5478515625,-18544.794921875,-26264.216796875,-34216.1171875,-33447.171875
304306.2314092,No Event,-36714.171875,-25063.546875,-25562.1484375,-10625.884765625,-18548.28125,-26252.83984375,-34219.78125,-33452.3359375
304306.23358060006,No Event,-36696.9140625,-25063.4140625,-25582.95703125,-10613.3681640625,-18543.65625,-26339.853515625,-34203.66796875,-33434.6796875
304306.2354092,No Event,-36703.48828125,-25065.603515625,-25522.228515625,-10616.4970703125,-18540.705078125,-26340.078125,-34210.26171875,-33440.64453125
304306.2375806001,No Event,-36682.2734375,-25076.802734375,-26033.546875,-10611.177734375,-18523.158203125,-26303.287109375,-34186.92578125,-33417.2421875
304306.23940920003,No Event,-36684.15234375,-25078.298828125,-25965.1953125,-10625.05859375,-18528.947265625,-26319.267578125,-34194.7265625,-33421.7578125
304306.2415806001,No Event,-36693.25,-25071.75,-26010.546875,-10623.1357421875,-18531.18359375,-26216.025390625,-34199.80078125,-33429.8046875
304306.24340920005,No Event,-36688.0625,-25072.890625,-26068.146484375,-10631.0263671875,-18526.130859375,-26223.08984375,-34197.36328125,-33427.4140625
304306.24740920006,No Event,-36706.79296875,-25058.115234375,-25621.46875,-10626.935546875,-18538.134765625,-26223.826171875,-34215.06640625,-33447.796875
304306.2514092001,No Event,-36708.0234375,-25064.84375,-25481.79296875,-10625.5947265625,-18550.29296875,-26324.69921875,-34220.69921875,-33449.4296875
304306.2554092001,No Event,-36686.90234375,-25075.841796875,-25891.388671875,-10618.1064453125,-18530.333984375,-26332.544921875,-34200.78515625,-33428.5078125
304306.2594092001,No Event,-36688.46484375,-25074.74609375,-26106.033203125,-10621.0791015625,-18519.046875,-26239.40625,-34196.8046875,-33428.5078125
304306.2634092001,No Event,-36708.60546875,-25060.015625,-25703.09765625,-10621.03515625,-18535.005859375,-26214.037109375,-34214.73046875,-33446.34765625
304306.26709639997,No Event,-36692.15625,-25072.578125,-25808.419921875,-10625.326171875,-18536.8828125,-26338.759765625,-34202.796875,-33432.421875
304306.26740920014,No Event,-36709.03125,-25059.994140625,-25461.6328125,-10617.927734375,-18545.95703125,-26311.869140625,-34220.1640625,-33448.9609375
304306.2710964,No Event,-36681.8515625,-25069.73828125,-26116.494140625,-10625.9970703125,-18525.505859375,-26247.85546875,-34188.8046875,-33419.30078125
304306.2750964,No Event,-36696.9375,-25052.08203125,-25784.681640625,-10630.84765625,-18534.044921875,-26198.61328125,-34203.78125,-33434.3203125
304306.2790964,No Event,-36711.2421875,-25055.880859375,-25453.40625,-10630.646484375,-18547.90234375,-26290.390625,-34219.0234375,-33449.02734375
304306.28309640003,No Event,-36702.19140625,-25077.673828125,-25715.705078125,-10632.6796875,-18544.392578125,-26347.833984375,-34211.625,-33440.0859375
304306.28709640005,No Event,-36697.05078125,-25088.71484375,-26113.521484375,-10637.0615234375,-18535.162109375,-26286.03125,-34203.84765625,-33436.0625
304306.29109640006,No Event,-36716.44921875,-25077.673828125,-25884.951171875,-10644.99609375,-18546.560546875,-26222.41796875,-34221.37109375,-33459.578125
304306.2950964001,No Event,-36729.234375,-25072.845703125,-25493.037109375,-10643.6103515625,-18558.33984375,-26295.3515625,-34233.640625,-33471.9375
304306.2990964001,No Event,-36706.86328125,-25075.28125,-25649.140625,-10632.5234375,-18544.728515625,-26354.6953125,-34213.6796875,-33449.85546875
304306.3002208,No Event,-36696.84765625,-25063.033203125,-25959.205078125,-10630.9140625,-18521.236328125,-26206.525390625,-34197.36328125,-33439.03515625
304306.3030964001,No Event,-36686.56640625,-25077.25,-26075.3671875,-10627.0703125,-18521.013671875,-26289.98828125,-34190.5703125,-33429.0234375
304306.3042208,No Event,-36710.1015625,-25055.009765625,-25521.646484375,-10635.228515625,-18538.447265625,-26258.583984375,-34214.08203125,-33452.58203125
304306.3082208,No Event,-36704.359375,-25069.58203125,-25573.345703125,-10635.3173828125,-18539.51953125,-26341.822265625,-34211.15625,-33441.94140625
304306.3122208,No Event,-36683.59375,-25078.232421875,-26027.130859375,-10627.5390625,-18522.599609375,-26304.740234375,-34190.8359375,-33418.4296875
304306.31622080004,No Event,-36695.88671875,-25070.96875,-26029.76953125,-10637.8212890625,-18529.015625,-26210.326171875,-34201.25390625,-33432.21875
304306.32022080006,No Event,-36716.76171875,-25061.40234375,-25577.392578125,-10640.5029296875,-18546.560546875,-26240.142578125,-34220.56640625,-33454.8828125
304306.3242208001,No Event,-36713.7890625,-25068.263671875,-25522.40625,-10636.435546875,-18546.673828125,-26337.8203125,-34219.359375,-33454.50390625
304306.3282208001,No Event,-36701.16015625,-25085.384765625,-25956.634765625,-10640.615234375,-18535.318359375,-26324.095703125,-34205.56640625,-33442.703125
304306.3322208001,No Event,-36703.59765625,-25079.484375,-26088.419921875,-10645.7109375,-18531.16015625,-26232.767578125,-34204.25,-33443.7734375
304306.3361361,No Event,-36726.12890625,-25073.0703125,-25486.0625,-10644.8173828125,-18551.03125,-26329.37109375,-34229.328125,-33463.2421875
304306.3362208001,No Event,-36722.62109375,-25065.1796875,-25655.310546875,-10646.11328125,-18543.923828125,-26231.404296875,-34222.7109375,-33462.10546875
304306.3401361,No Event,-36709.6328125,-25090.302734375,-25887.09765625,-10647.923828125,-18538.0234375,-26340.771484375,-34213.30078125,-33442.43359375
304306.34413610003,No Event,-36700.87109375,-25085.251953125,-26129.009765625,-10646.4931640625,-18524.544921875,-26248.94921875,-34204.29296875,-33434.87890625
304306.34813610004,No Event,-36721.94921875,-25071.326171875,-25741.251953125,-10650.2490234375,-18539.498046875,-26224.005859375,-34224.90234375,-33457.453125
304306.35213610006,No Event,-36723.53515625,-25073.046875,-25477.435546875,-10647.208984375,-18550.740234375,-26324.41015625,-34233.23828125,-33461.65625
304306.3561361001,No Event,-36697.8984375,-25078.142578125,-25794.896484375,-10639.810546875,-18533.373046875,-26349.2421875,-34209.5,-33435.28125
304306.3601361001,No Event,-36682.765625,-25072.107421875,-26130.240234375,-10639.5419921875,-18518.107421875,-26261.04296875,-34193.40625,-33419.63671875
304306.3641361001,No Event,-36698.48046875,-25055.791015625,-25820.66796875,-10648.68359375,-18534.1328125,-26204.73828125,-34211.3125,-33435.99609375
304306.3681361001,No Event,-36714.91015625,-25062.85546875,-25474.103515625,-10654.9873046875,-18557.849609375,-26293.4296875,-34230.51171875,-33454.05859375
304306.371851,No Event,-36681.046875,-25078.0546875,-26115.48828125,-10648.7958984375,-18525.05859375,-26279.638671875,-34200.31640625,-33418.02734375
304306.37213610014,No Event,-36694.859375,-25073.11328125,-25711.078125,-10645.64453125,-18540.951171875,-26346.11328125,-34213.76953125,-33433.71875
304306.375851,No Event,-36698.45703125,-25065.40234375,-25907.705078125,-10661.916015625,-18538.9609375,-26209.029296875,-34218.0859375,-33438.5234375
304306.37985100003,No Event,-36704.1796875,-25052.505859375,-25500.189453125,-10650.4052734375,-18544.34765625,-26277.1796875,-34224.41015625,-33445.921875
304306.38385100005,No Event,-36698.81640625,-25068.978515625,-25635.86328125,-10651.4111328125,-18544.99609375,-26349.3984375,-34220.6328125,-33442.3671875
304306.38785100006,No Event,-36688.66796875,-25084.044921875,-26081.2890625,-10658.1162109375,-18534.0,-26300.873046875,-34207.9140625,-33433.2265625
304306.3918510001,No Event,-36700.08984375,-25071.50390625,-25991.591796875,-10661.0,-18536.369140625,-26214.88671875,-34214.5078125,-33443.88671875
304306.3958510001,No Event,-36715.2421875,-25061.8046875,-25545.7421875,-10656.9091796875,-18551.142578125,-26261.421875,-34228.43359375,-33459.109375
304306.3998510001,No Event,-36708.359375,-25072.82421875,-25569.27734375,-10655.0986328125,-18549.869140625,-26345.845703125,-34222.95703125,-33450.66015625
304306.4038510001,No Event,-36698.1875,-25093.455078125,-26025.298828125,-10669.515625,-18545.466796875,-26319.42578125,-34215.2890625,-33438.703125
304306.40536439995,No Event,-36715.109375,-25066.67578125,-25607.857421875,-10674.388671875,-18558.02734375,-26240.9921875,-34234.24609375,-33459.01953125
304306.40785100014,No Event,-36704.44921875,-25085.294921875,-26064.7265625,-10679.3955078125,-18549.890625,-26225.50390625,-34221.4375,-33445.69921875
304306.40936439997,No Event,-36703.57421875,-25066.744140625,-25520.126953125,-10665.1572265625,-18553.490234375,-26333.4609375,-34228.0546875,-33448.9375
304306.4133644,No Event,-36678.00390625,-25074.275390625,-25948.2734375,-10658.9658203125,-18532.591796875,-26321.81640625,-34206.91015625,-33422.875
304306.4173644,No Event,-36687.90625,-25074.4765625,-26100.421875,-10671.7958984375,-18534.892578125,-26228.1171875,-34210.88671875,-33431.3046875
304306.4213644,No Event,-36710.9296875,-25063.501953125,-25671.24609375,-10677.6298828125,-18551.232421875,-26223.3125,-34228.94921875,-33452.9609375
304306.4253644,No Event,-36702.99609375,-25059.859375,-25481.94921875,-10664.93359375,-18550.517578125,-26322.95703125,-34222.33203125,-33445.7421875
304306.42936440004,No Event,-36688.21875,-25076.287109375,-25860.3203125,-10665.828125,-18536.615234375,-26333.685546875,-34206.21484375,-33427.28125
304306.43336440006,No Event,-36686.05078125,-25076.779296875,-26126.595703125,-10674.43359375,-18525.439453125,-26244.8828125,-34198.32421875,-33422.40625
304306.4373644001,No Event,-36700.6484375,-25058.517578125,-25750.931640625,-10677.0263671875,-18538.470703125,-26207.46484375,-34211.84765625,-33440.3984375
304306.4398661,No Event,-36695.12890625,-25078.6796875,-25765.9296875,-10668.666015625,-18532.837890625,-26337.59765625,-34207.69140625,-33433.046875
304306.4413644001,No Event,-36703.44140625,-25056.998046875,-25459.955078125,-10665.58203125,-18542.380859375,-26297.587890625,-34215.2890625,-33443.3046875
304306.4438661,No Event,-36685.13671875,-25085.787109375,-26123.35546875,-10675.3046875,-18530.267578125,-26261.6015625,-34197.4765625,-33422.8984375
304306.4478661,No Event,-36700.42578125,-25071.416015625,-25833.005859375,-10681.18359375,-18539.744140625,-26203.53125,-34209.79296875,-33439.125
304306.4518661,No Event,-36708.89453125,-25068.93359375,-25471.734375,-10670.052734375,-18547.947265625,-26286.1875,-34215.359375,-33446.50390625
304306.45586610003,No Event,-36696.15625,-25084.71484375,-25687.40625,-10663.212890625,-18537.708984375,-26343.005859375,-34202.171875,-33430.98828125
304306.45986610005,No Event,-36678.83203125,-25089.341796875,-26101.517578125,-10667.9736328125,-18516.23046875,-26279.080078125,-34184.48828125,-33410.96484375
304306.46386610006,No Event,-36697.765625,-25080.9140625,-25917.0703125,-10680.0654296875,-18528.076171875,-26205.6328125,-34202.4609375,-33431.48046875
304306.4658588,No Event,-36686.9453125,-25078.009765625,-25998.296875,-10679.7978515625,-18531.474609375,-26216.5625,-34196.0234375,-33421.89453125
304306.4678661001,No Event,-36706.4609375,-25071.28125,-25497.126953125,-10675.2822265625,-18544.818359375,-26269.357421875,-34214.12890625,-33442.7265625
304306.4698588,No Event,-36700.6015625,-25064.240234375,-25539.9296875,-10676.310546875,-18542.08984375,-26250.759765625,-34209.16796875,-33436.578125
304306.4718661001,No Event,-36697.18359375,-25083.91015625,-25608.21484375,-10673.583984375,-18545.935546875,-26345.6875,-34208.765625,-33433.42578125
304306.4738588,No Event,-36698.1015625,-25077.65234375,-25539.3046875,-10674.052734375,-18543.587890625,-26341.21875,-34211.78125,-33436.0625
304306.4758661001,No Event,-36679.14453125,-25092.873046875,-26059.921875,-10675.037109375,-18529.70703125,-26301.87890625,-34192.19921875,-33413.890625
304306.47785880003,No Event,-36676.44140625,-25086.30078125,-25995.59375,-10672.6455078125,-18524.65625,-26316.36328125,-34190.1875,-33413.98046875
304306.48185880005,No Event,-36680.6640625,-25076.064453125,-26054.892578125,-10675.55078125,-18521.59375,-26219.802734375,-34192.19921875,-33418.51953125
304306.48585880006,No Event,-36700.53515625,-25066.38671875,-25606.583984375,-10681.384765625,-18540.123046875,-26233.4375,-34212.40625,-33435.39453125
304306.4898588001,No Event,-36689.91796875,-25066.564453125,-25496.658203125,-10674.455078125,-18540.66015625,-26325.37109375,-34207.2890625,-33423.078125
304306.4938588001,No Event,-36678.05078125,-25085.787109375,-25916.53515625,-10681.5634765625,-18535.20703125,-26322.353515625,-34197.23046875,-33409.95703125
304306.4978588001,No Event,-36677.40234375,-25080.423828125,-26101.919921875,-10685.67578125,-18524.8125,-26228.900390625,-34191.328125,-33407.09765625
304306.5000302,No Event,-36704.8515625,-25078.412109375,-25475.9375,-10688.537109375,-18549.734375,-26318.375,-34224.43359375,-33439.28125
304306.5018588001,No Event,-36699.59765625,-25069.783203125,-25685.8203125,-10691.3759765625,-18543.095703125,-26214.818359375,-34213.94921875,-33430.96875
304306.5040302,No Event,-36685.16015625,-25092.046875,-25844.80859375,-10689.029296875,-18537.732421875,-26338.78125,-34206.59375,-33420.05859375
304306.5080302,No Event,-36672.7734375,-25087.263671875,-26135.24609375,-10690.34765625,-18526.064453125,-26250.0,-34194.390625,-33408.37109375
304306.51203020004,No Event,-36696.6015625,-25075.998046875,-25778.646484375,-10700.4951171875,-18539.900390625,-26211.48828125,-34215.55859375,-33432.64453125
304306.51603020006,No Event,-36699.88671875,-25072.0859375,-25476.607421875,-10690.3701171875,-18542.984375,-26303.80078125,-34217.19140625,-33435.4375
304306.5200302001,No Event,-36682.65625,-25083.5078125,-25755.87109375,-10688.42578125,-18530.69140625,-26336.79296875,-34202.68359375,-33416.88671875
304306.5240302001,No Event,-36672.10546875,-25086.81640625,-26126.462890625,-10686.6591796875,-18512.943359375,-26259.544921875,-34186.30078125,-33402.46875
304306.5280302001,No Event,-36685.60546875,-25069.380859375,-25860.275390625,-10683.955078125,-18517.5703125,-26195.595703125,-34194.7265625,-33415.87890625
304306.5320302001,No Event,-36704.203125,-25073.158203125,-25482.21875,-10687.9111328125,-18537.84375,-26280.041015625,-34214.171875,-33436.82421875
304306.53603020014,No Event,-36699.23828125,-25093.095703125,-25674.3984375,-10692.8955078125,-18538.40234375,-26349.599609375,-34210.84375,-33433.875
304306.53685439995,No Event,-36685.828125,-25098.70703125,-26105.072265625,-10688.0009765625,-18523.583984375,-26293.09375,-34195.0859375,-33420.6875
304306.54085439997,No Event,-36700.4921875,-25084.333984375,-25948.318359375,-10695.9580078125,-18530.06640625,-26212.76171875,-34205.96875,-33437.47265625
304306.5448544,No Event,-36714.73046875,-25075.505859375,-25514.091796875,-10700.919921875,-18541.197265625,-26269.69140625,-34219.9609375,-33453.56640625
304306.5488544,No Event,-36707.1953125,-25085.541015625,-25600.99609375,-10691.9345703125,-18532.76953125,-26349.263671875,-34211.9140625,-33446.50390625
304306.5528544,No Event,-36690.76953125,-25093.833984375,-26052.611328125,-10686.078125,-18516.87890625,-26306.39453125,-34190.14453125,-33428.3515625
304306.5568544,No Event,-36699.93359375,-25080.982421875,-26017.876953125,-10686.5703125,-18512.384765625,-26212.181640625,-34192.06640625,-33436.66796875
304306.56085440004,No Event,-36722.62109375,-25073.560546875,-25563.689453125,-10696.29296875,-18534.267578125,-26246.736328125,-34215.2890625,-33460.11328125
304306.56485440006,No Event,-36714.8203125,-25079.73046875,-25540.6015625,-10690.2578125,-18535.318359375,-26341.173828125,-34210.1484375,-33448.4921875
304306.5688544001,No Event,-36697.40625,-25093.208984375,-25987.79296875,-10685.474609375,-18519.515625,-26320.408203125,-34193.69921875,-33431.68359375
304306.5728544001,No Event,-36707.80078125,-25091.419921875,-26077.333984375,-10693.2529296875,-18517.458984375,-26228.36328125,-34199.7109375,-33442.25390625
304306.6479107,No Event,-36722.015625,-25076.802734375,-25629.42578125,-10694.4384765625,-18533.126953125,-26234.734375,-34218.77734375,-33459.375
304306.6519107,No Event,-36718.75390625,-25081.40625,-25495.115234375,-10690.03515625,-18538.8046875,-26333.775390625,-34221.125,-33456.3359375
304306.65591070004,No Event,-36694.41015625,-25090.4375,-25907.83984375,-10684.8271484375,-18521.125,-26334.84765625,-34198.21484375,-33430.4296875
304306.65991070005,No Event,-36691.57421875,-25084.625,-26114.97265625,-10686.0556640625,-18511.021484375,-26241.439453125,-34192.08984375,-33426.51953125
304306.66391070007,No Event,-36719.22265625,-25074.052734375,-25704.529296875,-10694.9970703125,-18530.333984375,-26221.5234375,-34215.3125,-33453.3203125
304306.6679107001,No Event,-36721.14453125,-25075.193359375,-25472.31640625,-10693.96875,-18538.671875,-26322.755859375,-34219.08984375,-33455.5546875
304306.6719107001,No Event,-36701.3203125,-25088.24609375,-25820.33203125,-10691.3759765625,-18526.490234375,-26347.095703125,-34201.38671875,-33435.125
304306.6759107001,No Event,-36700.3125,-25095.220703125,-26129.501953125,-10698.3046875,-18524.208984375,-26266.361328125,-34199.48828125,-33433.44921875
304306.6799107001,No Event,-36719.8046875,-25080.646484375,-25795.6796875,-10700.5849609375,-18533.126953125,-26221.279296875,-34216.25,-33453.23046875
304306.68232829997,No Event,-36714.86328125,-25095.197265625,-25740.693359375,-10693.9912109375,-18536.48046875,-26355.09765625,-34210.84375,-33448.625
304306.68391070014,No Event,-36730.734375,-25081.80859375,-25472.740234375,-10698.8408203125,-18544.75,-26310.39453125,-34226.46484375,-33465.30078125
304306.6863283,No Event,-36712.046875,-25107.267578125,-26125.412109375,-10700.5849609375,-18527.25,-26288.423828125,-34205.3671875,-33444.17578125
304306.6903283,No Event,-36722.0390625,-25086.525390625,-25887.65625,-10700.763671875,-18527.96484375,-26225.94921875,-34213.1875,-33457.69921875
304306.6943283,No Event,-36725.390625,-25073.248046875,-25489.146484375,-10693.3203125,-18535.162109375,-26289.98828125,-34217.1015625,-33462.52734375
304306.69832830003,No Event,-36719.71484375,-25094.4609375,-25663.06640625,-10697.388671875,-18535.921875,-26359.904296875,-34213.2109375,-33455.84375
304306.70232830005,No Event,-36702.63671875,-25103.177734375,-26098.388671875,-10702.4619140625,-18523.046875,-26305.58984375,-34200.046875,-33436.17578125
304306.70632830006,No Event,-36709.4765625,-25083.060546875,-25968.748046875,-10706.798828125,-18530.46875,-26217.568359375,-34206.1484375,-33444.625
304306.7103283001,No Event,-36727.203125,-25075.013671875,-25526.048828125,-10706.1953125,-18545.82421875,-26268.306640625,-34222.21875,-33461.56640625
304306.7143283001,No Event,-36717.12109375,-25084.849609375,-25583.896484375,-10700.2490234375,-18543.56640625,-26349.533203125,-34215.359375,-33451.375
304306.71717879997,No Event,-36703.26171875,-25083.171875,-26035.916015625,-10698.5732421875,-18525.685546875,-26224.318359375,-34199.82421875,-33437.91796875
304306.7183283001,No Event,-36699.7109375,-25098.37109375,-26039.291015625,-10698.103515625,-18531.474609375,-26316.541015625,-34201.0078125,-33434.9453125
304306.7211788,No Event,-36717.45703125,-25071.03515625,-25580.611328125,-10710.3525390625,-18538.357421875,-26250.111328125,-34214.6875,-33451.44140625
304306.7251788,No Event,-36713.1640625,-25081.919921875,-25532.419921875,-10703.8037109375,-18539.7890625,-26345.666015625,-34213.703125,-33446.58984375
304306.7291788,No Event,-36697.140625,-25096.337890625,-25974.134765625,-10701.0986328125,-18523.583984375,-26331.048828125,-34196.87109375,-33427.0546875
304306.73317880003,No Event,-36698.63671875,-25088.201171875,-26092.46484375,-10706.462890625,-18519.1796875,-26237.05859375,-34197.8125,-33430.09765625
304306.73717880005,No Event,-36721.03125,-25077.875,-25653.587890625,-10714.3310546875,-18540.236328125,-26239.517578125,-34221.99609375,-33456.78515625
304306.74117880006,No Event,-36719.22265625,-25081.31640625,-25496.61328125,-10707.9384765625,-18544.1015625,-26338.447265625,-34223.2265625,-33456.44921875
304306.74293139996,No Event,-36719.7578125,-25078.634765625,-25474.73046875,-10703.8037109375,-18532.255859375,-26319.783203125,-34217.94921875,-33454.4609375
304306.7451788001,No Event,-36702.390625,-25096.6953125,-25894.65234375,-10707.2236328125,-18530.1328125,-26346.314453125,-34206.68359375,-33439.08203125
304306.7469314,No Event,-36699.12890625,-25089.341796875,-25801.490234375,-10701.0537109375,-18521.392578125,-26342.1796875,-34199.375,-33430.87890625
304306.7491788001,No Event,-36699.26171875,-25094.013671875,-26124.5625,-10710.1064453125,-18516.990234375,-26254.44921875,-34198.75,-33433.58203125
304306.7509314,No Event,-36693.5625,-25091.80078125,-26127.513671875,-10709.5927734375,-18518.173828125,-26261.734375,-34192.06640625,-33425.15625
304306.7531788001,No Event,-36717.546875,-25078.322265625,-25730.45703125,-10710.5537109375,-18528.232421875,-26226.017578125,-34213.546875,-33452.359375
304306.7549314,No Event,-36714.73046875,-25078.2109375,-25813.828125,-10715.1357421875,-18532.61328125,-26212.583984375,-34211.421875,-33448.46875
304306.7589314,No Event,-36717.8828125,-25071.03515625,-25472.29296875,-10705.6357421875,-18538.58203125,-26296.46875,-34215.4921875,-33452.87109375
304306.76293140004,No Event,-36707.421875,-25087.5078125,-25716.576171875,-10706.6416015625,-18533.88671875,-26348.951171875,-34205.56640625,-33441.3828125
304306.76693140005,No Event,-36699.953125,-25098.595703125,-26115.197265625,-10714.1298828125,-18525.08203125,-26281.583984375,-34198.1484375,-33435.01171875
304306.77093140007,No Event,-36709.07421875,-25077.29296875,-25896.44140625,-10712.029296875,-18525.998046875,-26208.248046875,-34203.890625,-33443.12890625
304306.7749314001,No Event,-36716.33984375,-25064.888671875,-25485.927734375,-10703.7587890625,-18532.45703125,-26271.369140625,-34209.63671875,-33450.66015625
304306.7789314001,No Event,-36706.6171875,-25074.65625,-25623.90625,-10699.6904296875,-18525.751953125,-26339.20703125,-34197.41015625,-33438.6796875
304306.78590689995,No Event,-36690.546875,-25082.837890625,-26067.251953125,-10702.841796875,-18511.759765625,-26289.16015625,-34181.875,-33420.953125
304306.78990689997,No Event,-36694.25390625,-25065.939453125,-25964.412109375,-10706.59765625,-18516.85546875,-26201.98828125,-34189.98828125,-33428.64453125
304306.7939069,No Event,-36712.8984375,-25058.00390625,-25518.78515625,-10710.888671875,-18534.087890625,-26250.58203125,-34208.13671875,-33449.140625
304306.7979069,No Event,-36706.70703125,-25068.6875,-25553.05078125,-10713.3251953125,-18532.322265625,-26337.1953125,-34205.43359375,-33444.15625
304306.8019069,No Event,-36691.796875,-25084.603515625,-26005.248046875,-10717.416015625,-18525.1484375,-26307.35546875,-34190.2109375,-33428.64453125
304306.80590690003,No Event,-36690.9921875,-25068.2421875,-26025.947265625,-10712.7216796875,-18518.353515625,-26208.3359375,-34185.4296875,-33426.09375
304306.80990690005,No Event,-36707.01953125,-25053.400390625,-25571.087890625,-10697.74609375,-18526.7578125,-26227.111328125,-34199.48828125,-33443.53125
304306.81293019996,No Event,-36711.265625,-25064.21875,-25650.68359375,-10715.6943359375,-18533.1953125,-26223.603515625,-34207.19921875,-33451.93359375
304306.81390690006,No Event,-36711.84765625,-25067.548828125,-25494.4453125,-10704.853515625,-18536.32421875,-26323.671875,-34204.62890625,-33449.25
304306.8169302,No Event,-36711.33203125,-25068.330078125,-25474.060546875,-10712.9453125,-18539.431640625,-26321.34765625,-34210.70703125,-33451.59765625
304306.8179069001,No Event,-36693.203125,-25082.859375,-25929.900390625,-10709.9501953125,-18523.494140625,-26316.564453125,-34187.12890625,-33429.8515625
304306.8209302,No Event,-36704.44921875,-25091.197265625,-25863.248046875,-10721.751953125,-18534.267578125,-26337.306640625,-34203.46484375,-33442.61328125
304306.8219069001,No Event,-36692.98046875,-25077.740234375,-26080.841796875,-10713.1689453125,-18517.4140625,-26224.02734375,-34186.74609375,-33430.98828125
304306.8249302,No Event,-36700.91796875,-25090.212890625,-26117.90234375,-10721.662109375,-18522.912109375,-26249.84375,-34196.73828125,-33439.640625
304306.8289302,No Event,-36720.2734375,-25073.3828125,-25739.28515625,-10721.4169921875,-18533.373046875,-26214.103515625,-34211.625,-33460.58203125
304306.83293020003,No Event,-36725.50390625,-25074.8125,-25465.431640625,-10714.107421875,-18539.36328125,-26306.39453125,-34216.00390625,-33465.48046875
304306.83693020005,No Event,-36704.71484375,-25086.525390625,-25773.55078125,-10707.0224609375,-18521.4375,-26336.435546875,-34195.59765625,-33443.171875
304306.84093020007,No Event,-36693.62890625,-25087.375,-26117.767578125,-10710.5537109375,-18508.8984375,-26256.83984375,-34183.99609375,-33429.29296875
304306.8449302001,No Event,-36708.515625,-25070.296875,-25822.255859375,-10718.935546875,-18523.650390625,-26202.32421875,-34199.98046875,-33445.140625
304306.84788849996,No Event,-36714.3046875,-25091.083984375,-25692.369140625,-10724.12109375,-18533.88671875,-26344.525390625,-34212.71875,-33448.0234375
304306.8489302001,No Event,-36723.4453125,-25073.3828125,-25471.421875,-10725.328125,-18541.62109375,-26289.7421875,-34218.375,-33458.640625
304306.8518885,No Event,-36703.0390625,-25101.43359375,-26104.53515625,-10726.423828125,-18525.259765625,-26283.728515625,-34203.30859375,-33437.47265625
304306.8558885,No Event,-36710.796875,-25083.10546875,-25916.490234375,-10725.73046875,-18528.658203125,-26209.6328125,-34211.3359375,-33448.9609375
304306.8598885,No Event,-36727.3125,-25079.998046875,-25505.240234375,-10729.3291015625,-18547.1875,-26278.611328125,-34229.19140625,-33467.24609375
304306.8638885,No Event,-36715.48828125,-25089.966796875,-25630.052734375,-10724.970703125,-18537.93359375,-26353.845703125,-34218.3515625,-33453.98828125
304306.86788850004,No Event,-36702.34765625,-25101.03125,-26069.15234375,-10724.568359375,-18520.9453125,-26304.001953125,-34201.8359375,-33438.0078125
304306.87188850006,No Event,-36710.59375,-25087.396484375,-25993.71484375,-10732.4580078125,-18525.841796875,-26216.40625,-34206.9296875,-33448.22265625
304306.8744948,No Event,-36708.203125,-25090.146484375,-26065.755859375,-10743.9697265625,-18534.759765625,-26226.8671875,-34210.328125,-33442.8828125
304306.8758885001,No Event,-36725.63671875,-25075.52734375,-25549.4296875,-10734.693359375,-18543.54296875,-26259.521484375,-34221.21484375,-33465.76953125
304306.8784948,No Event,-36728.4296875,-25078.61328125,-25613.177734375,-10745.82421875,-18552.55078125,-26236.634765625,-34230.625,-33464.71875
304306.8798885001,No Event,-36727.87109375,-25091.375,-25564.16015625,-10734.2236328125,-18550.205078125,-26352.125,-34225.03515625,-33467.98046875
304306.8824948,No Event,-36724.6328125,-25083.57421875,-25515.119140625,-10738.2919921875,-18557.1328125,-26331.830078125,-34227.26953125,-33460.60546875
304306.8838885001,No Event,-36709.8125,-25104.80859375,-26017.341796875,-10740.6611328125,-18540.638671875,-26326.376953125,-34210.3515625,-33446.43359375
304306.88649480004,No Event,-36701.4296875,-25094.705078125,-25937.791015625,-10732.3017578125,-18538.73828125,-26325.21484375,-34205.5234375,-33437.44921875
304306.89049480006,No Event,-36699.26171875,-25087.75390625,-26106.078125,-10733.4638671875,-18528.388671875,-26231.314453125,-34199.98046875,-33437.046875
304306.8944948001,No Event,-36713.34375,-25067.66015625,-25680.12109375,-10727.2060546875,-18531.80859375,-26218.9765625,-34210.26171875,-33453.69921875
304306.8984948001,No Event,-36719.1328125,-25074.87890625,-25476.09375,-10719.740234375,-18545.3984375,-26318.0390625,-34216.6328125,-33459.7109375
304306.9024948001,No Event,-36705.83203125,-25096.181640625,-25849.078125,-10725.73046875,-18536.2578125,-26340.390625,-34204.3828125,-33444.9140625
304306.9064948001,No Event,-36702.76953125,-25097.298828125,-26129.123046875,-10740.7509765625,-18526.087890625,-26255.119140625,-34199.98046875,-33438.30078125
304306.9082509,No Event,-36721.76953125,-25079.998046875,-25477.724609375,-10738.0458984375,-18539.810546875,-26313.234375,-34218.75390625,-33458.9296875
304306.91049480013,No Event,-36727.0234375,-25087.53125,-25768.455078125,-10755.5703125,-18543.296875,-26220.31640625,-34222.82421875,-33462.39453125
304306.9122509,No Event,-36706.16796875,-25093.9453125,-25762.12890625,-10734.9619140625,-18530.802734375,-26346.58203125,-34205.6328125,-33442.703125
304306.9162509,No Event,-36701.3203125,-25102.70703125,-26122.974609375,-10742.2705078125,-18526.130859375,-26270.36328125,-34201.7890625,-33437.94140625
304306.92025090003,No Event,-36710.34765625,-25079.171875,-25850.84375,-10737.2197265625,-18524.65625,-26207.21875,-34207.37890625,-33448.46875
304306.92425090005,No Event,-36714.26171875,-25067.75,-25477.859375,-10726.6025390625,-18529.23828125,-26278.767578125,-34209.7265625,-33450.4375
304306.92825090006,No Event,-36704.40234375,-25082.814453125,-25675.314453125,-10728.546875,-18524.923828125,-26335.49609375,-34200.203125,-33440.78125
304306.9322509001,No Event,-36689.26953125,-25089.876953125,-26088.912109375,-10726.9150390625,-18511.40234375,-26272.666015625,-34184.84765625,-33426.5859375
304306.9362509001,No Event,-36699.640625,-25074.65625,-25922.369140625,-10727.697265625,-18511.021484375,-26191.86328125,-34192.69140625,-33436.1328125
304306.9402509001,No Event,-36715.95703125,-25070.857421875,-25499.361328125,-10735.2294921875,-18524.72265625,-26255.23046875,-34210.10546875,-33453.2734375
