Timestamp,Label,EEG_1,EEG_2,EEG_3,EEG_4,EEG_5,EEG_6,EEG_7,EEG_8
302919.1491028,No Event,-47880.85546875,-37871.85546875,-37760.96875,-19529.658203125,-27531.716796875,-40109.578125,-42790.6484375,-46688.6796875
302919.1531028,No Event,-47838.69921875,-37863.140625,-37884.39453125,-19478.896484375,-27492.556640625,-40215.3046875,-42750.75,-46643.6875
302919.15710280003,No Event,-47811.20703125,-37855.6953125,-38194.48046875,-19452.701171875,-27458.537109375,-40245.61328125,-42726.3203125,-46617.73828125
302919.16110280005,No Event,-47849.38671875,-37867.36328125,-38140.703125,-19504.69140625,-27512.046875,-40155.625,-42764.33984375,-46655.3984375
302919.16510280006,No Event,-47890.0859375,-37883.03125,-37813.25,-19539.11328125,-27557.533203125,-40115.7265625,-42806.921875,-46698.4921875
302919.1691028001,No Event,-47852.359375,-37869.53125,-37847.359375,-19500.0859375,-27517.142578125,-40207.03125,-42771.1796875,-46662.86328125
302919.1731028001,No Event,-47810.42578125,-37855.3828125,-38168.64453125,-19478.583984375,-27496.580078125,-40254.3984375,-42736.73828125,-46620.64453125
302919.1771028001,No Event,-47842.2109375,-37869.64453125,-38200.65234375,-19516.11328125,-27531.42578125,-40178.9140625,-42770.375,-46651.6875
302919.1811028001,No Event,-47890.6015625,-37887.90625,-37867.69921875,-19571.724609375,-27572.93359375,-40117.71484375,-42819.99609375,-46701.15234375
302919.18510280014,No Event,-47869.5,-37885.3125,-37823.0859375,-19552.388671875,-27540.3671875,-40199.56640625,-42802.00390625,-46681.21484375
302919.19049159996,No Event,-47827.6796875,-37875.1875,-38140.32421875,-19525.166015625,-27525.2578125,-40272.859375,-42765.546875,-46637.453125
302919.1944916,No Event,-47842.03125,-37878.765625,-38256.28515625,-19560.4140625,-27558.873046875,-40215.01171875,-42783.00390625,-46650.48046875
302919.1984916,No Event,-47889.6640625,-37891.34765625,-37941.28125,-19607.419921875,-27615.490234375,-40133.33984375,-42830.5703125,-46698.89453125
302919.2024916,No Event,-47873.01171875,-37883.75,-37805.5625,-19586.990234375,-27585.8515625,-40185.53125,-42813.8046875,-46680.12109375
302919.2064916,No Event,-47831.28125,-37877.1328125,-38098.97265625,-19555.876953125,-27546.447265625,-40277.95703125,-42780.234375,-46639.6875
302919.21049160004,No Event,-47834.56640625,-37874.26953125,-38277.9453125,-19567.611328125,-27567.0546875,-40237.3203125,-42784.8359375,-46643.73046875
302919.21449160005,No Event,-47882.98046875,-37884.46484375,-38000.35546875,-19602.345703125,-27606.28125,-40136.66796875,-42829.453125,-46691.41015625
302919.21849160007,No Event,-47888.45703125,-37887.97265625,-37792.30859375,-19618.05859375,-27609.724609375,-40169.3046875,-42829.875,-46694.3359375
302919.2224916001,No Event,-47831.94921875,-37865.28515625,-38029.37109375,-19571.634765625,-27561.421875,-40258.26171875,-42772.92578125,-46631.125
302919.22261379997,No Event,-47887.515625,-37888.1953125,-38068.91015625,-19626.93359375,-27624.54296875,-40147.33203125,-42829.3828125,-46687.6328125
302919.2264916001,No Event,-47822.09375,-37862.08984375,-38272.9140625,-19573.01953125,-27570.294921875,-40240.31640625,-42770.28515625,-46622.36328125
302919.2266138,No Event,-47904.97265625,-37894.90234375,-37800.80078125,-19634.46484375,-27621.033203125,-40157.43359375,-42841.6328125,-46704.91015625
302919.2306138,No Event,-47850.8828125,-37870.8515625,-37972.0390625,-19576.708984375,-27554.470703125,-40252.00390625,-42783.51953125,-46649.453125
302919.2346138,No Event,-47835.68359375,-37869.109375,-38257.26953125,-19570.740234375,-27548.099609375,-40258.98046875,-42767.8046875,-46634.546875
302919.23861380003,No Event,-47884.38671875,-37892.7109375,-38127.11328125,-19606.681640625,-27603.533203125,-40167.42578125,-42818.34375,-46689.8203125
302919.24261380004,No Event,-47903.609375,-37895.59375,-37812.265625,-19601.162109375,-27612.138671875,-40148.00390625,-42833.67578125,-46711.390625
302919.24661380006,No Event,-47856.9609375,-37879.27734375,-37911.59765625,-19561.755859375,-27552.59375,-40237.90234375,-42791.25390625,-46663.828125
302919.2506138001,No Event,-47826.33984375,-37871.140625,-38228.30078125,-19556.2109375,-27539.115234375,-40266.69140625,-42764.4296875,-46630.9921875
302919.2546138001,No Event,-47858.796875,-37880.5078125,-38179.28125,-19595.529296875,-27586.61328125,-40172.5,-42794.94140625,-46664.25
302919.2586138001,No Event,-47903.74609375,-37899.9296875,-37846.95703125,-19619.35546875,-27613.076171875,-40133.05078125,-42836.359375,-46710.71875
302919.2628966,No Event,-47878.44140625,-37895.73046875,-37877.9609375,-19587.4140625,-27584.845703125,-40231.375,-42808.1484375,-46682.71484375
302919.2668966,No Event,-47840.46875,-37884.84375,-38204.25,-19548.880859375,-27553.353515625,-40286.0234375,-42771.0703125,-46641.609375
302919.27089660004,No Event,-47868.85546875,-37891.83984375,-38237.30859375,-19571.208984375,-27580.599609375,-40207.19140625,-42798.42578125,-46668.296875
302919.27489660005,No Event,-47921.06640625,-37909.09375,-37898.859375,-19595.416015625,-27618.3515625,-40141.2734375,-42846.59375,-46720.53125
302919.27889660007,No Event,-47888.09765625,-37896.421875,-37839.0234375,-19566.962890625,-27577.359375,-40210.51953125,-42815.4140625,-46687.5859375
302919.2828966001,No Event,-47834.96875,-37875.45703125,-38143.1640625,-19547.96484375,-27540.12109375,-40273.26171875,-42769.70703125,-46634.5
302919.2868966001,No Event,-47853.36328125,-37882.49609375,-38267.953125,-19583.861328125,-27568.171875,-40216.51171875,-42791.74609375,-46652.984375
302919.2908966001,No Event,-47904.16796875,-37896.01953125,-37954.625,-19621.30078125,-27602.7734375,-40131.39453125,-42838.59375,-46702.40625
302919.2948966001,No Event,-47890.37890625,-37888.26171875,-37805.65234375,-19593.13671875,-27570.2734375,-40181.1953125,-42821.31640625,-46686.625
302919.29862799996,No Event,-47835.796875,-37866.91796875,-38269.7421875,-19535.4921875,-27533.861328125,-40217.76171875,-42766.46484375,-46633.94140625
302919.29889660014,No Event,-47831.390625,-37864.59375,-38079.4140625,-19537.01171875,-27523.580078125,-40262.12890625,-42762.95703125,-46631.08203125
302919.302628,No Event,-47893.28515625,-37886.1171875,-38002.03515625,-19583.681640625,-27591.3515625,-40126.5,-42821.62890625,-46694.8515625
302919.306628,No Event,-47892.0546875,-37883.8828125,-37785.53515625,-19575.58984375,-27594.927734375,-40155.01953125,-42822.0078125,-46696.48046875
302919.310628,No Event,-47836.28515625,-37863.140625,-38018.4609375,-19530.865234375,-27539.80859375,-40249.45703125,-42770.98046875,-46639.84375
302919.314628,No Event,-47833.8515625,-37867.98828125,-38272.46875,-19539.73828125,-27527.224609375,-40241.34375,-42772.9453125,-46637.67578125
302919.31862800004,No Event,-47888.5234375,-37887.859375,-38073.22265625,-19605.54296875,-27588.466796875,-40144.4921875,-42826.9921875,-46693.75390625
302919.32262800005,No Event,-47906.29296875,-37897.31640625,-37796.26171875,-19608.068359375,-27602.75,-40151.30859375,-42843.375,-46713.78125
302919.32662800007,No Event,-47844.0,-37872.39453125,-37964.01171875,-19537.705078125,-27545.8203125,-40246.91015625,-42783.453125,-46652.13671875
302919.3306280001,No Event,-47819.58984375,-37859.80859375,-38251.0078125,-19509.630859375,-27535.583984375,-40250.73046875,-42761.32421875,-46628.84765625
302919.330951,No Event,-47881.8828125,-37874.33984375,-37799.796875,-19594.74609375,-27588.580078125,-40120.75390625,-42824.421875,-46695.34375
302919.3346280001,No Event,-47861.4765625,-37870.8046875,-38124.74609375,-19574.517578125,-27580.623046875,-40151.04296875,-42804.53125,-46671.828125
302919.334951,No Event,-47823.390625,-37867.38671875,-38223.26953125,-19538.755859375,-27539.115234375,-40264.96875,-42770.265625,-46630.56640625
302919.338951,No Event,-47918.69921875,-37903.796875,-37856.74609375,-19620.25,-27625.90625,-40146.50390625,-42854.171875,-46724.53515625
302919.342951,No Event,-47877.125,-37884.44140625,-37865.578125,-19568.86328125,-27572.12890625,-40226.97265625,-42812.0390625,-46680.87890625
302919.34695100004,No Event,-47837.2265625,-37872.1015625,-38182.94921875,-19523.443359375,-27529.5703125,-40276.234375,-42774.2421875,-46636.84765625
302919.35095100006,No Event,-47859.4453125,-37876.41796875,-38230.4921875,-19558.3125,-27563.2109375,-40199.72265625,-42796.5703125,-46662.91015625
302919.3549510001,No Event,-47900.48046875,-37883.66015625,-37892.2421875,-19594.56640625,-27594.435546875,-40127.34765625,-42833.18359375,-46706.80859375
302919.3589510001,No Event,-47876.87890625,-37877.9375,-37820.29296875,-19562.359375,-27561.064453125,-40198.5859375,-42811.01171875,-46682.04296875
302919.3629510001,No Event,-47828.0625,-37863.07421875,-38125.01171875,-19529.30078125,-27527.357421875,-40270.0859375,-42767.91796875,-46634.390625
302919.36428489996,No Event,-47901.6640625,-37889.58203125,-37956.14453125,-19596.98046875,-27606.013671875,-40134.92578125,-42839.578125,-46709.6484375
302919.3669510001,No Event,-47853.65625,-37879.58984375,-38262.8125,-19561.0390625,-27568.306640625,-40223.39453125,-42794.9609375,-46660.609375
302919.3682849,No Event,-47885.1015625,-37881.87109375,-37798.921875,-19566.5390625,-27586.65625,-40177.84375,-42823.640625,-46692.16796875
302919.3722849,No Event,-47837.359375,-37871.09765625,-38078.20703125,-19535.849609375,-27541.796875,-40270.17578125,-42777.75390625,-46643.62109375
302919.3762849,No Event,-47842.43359375,-37872.7734375,-38279.328125,-19552.76953125,-27540.09765625,-40240.71875,-42781.10546875,-46647.28515625
302919.3802849,No Event,-47904.75,-37892.62109375,-38020.0703125,-19605.498046875,-27592.826171875,-40147.0625,-42835.171875,-46709.87109375
302919.38428490004,No Event,-47900.4140625,-37886.4765625,-37788.12890625,-19584.017578125,-27578.6328125,-40167.0234375,-42823.83984375,-46704.3515625
302919.38828490005,No Event,-47847.12890625,-37865.80078125,-38007.93359375,-19522.05859375,-27541.193359375,-40257.234375,-42767.46875,-46647.2421875
302919.39228490007,No Event,-47831.078125,-37855.33984375,-38258.4296875,-19514.16796875,-27531.8515625,-40238.16796875,-42753.92578125,-46627.796875
302919.3962849001,No Event,-47873.81640625,-37863.96875,-38058.89453125,-19558.916015625,-27571.81640625,-40132.890625,-42800.03515625,-46673.55078125
302919.3997487,No Event,-47844.734375,-37865.28515625,-37945.57421875,-19532.228515625,-27542.9140625,-40241.8125,-42786.0234375,-46652.5390625
302919.4002849001,No Event,-47885.19140625,-37867.41015625,-37768.34765625,-19570.6953125,-27579.2578125,-40127.41796875,-42815.83984375,-46688.45703125
302919.4037487,No Event,-47817.5546875,-37854.421875,-38246.8515625,-19533.234375,-27518.39453125,-40252.33984375,-42764.9453125,-46625.5390625
302919.4077487,No Event,-47862.4609375,-37864.7265625,-38125.796875,-19573.01953125,-27538.0859375,-40150.34765625,-42806.80859375,-46668.36328125
302919.4117487,No Event,-47860.0234375,-37870.359375,-37898.2109375,-19553.216796875,-27564.908203125,-40230.390625,-42799.703125,-46666.26171875
302919.41574870003,No Event,-47823.66015625,-37855.1171875,-38214.93359375,-19527.84765625,-27528.072265625,-40260.3203125,-42763.78125,-46626.921875
302919.41974870005,No Event,-47856.29296875,-37863.67578125,-38185.2734375,-19560.033203125,-27565.712890625,-40168.85546875,-42797.578125,-46655.5546875
302919.42374870006,No Event,-47899.921875,-37877.80078125,-37842.53125,-19581.849609375,-27598.01171875,-40118.1171875,-42834.234375,-46698.08984375
302919.4277487001,No Event,-47869.5234375,-37867.140625,-37845.4140625,-19545.21484375,-27560.28125,-40204.88671875,-42801.51171875,-46668.41015625
302919.4316741,No Event,-47901.10546875,-37883.01171875,-37897.828125,-19595.013671875,-27594.212890625,-40124.98046875,-42844.5625,-46707.3671875
302919.4317487001,No Event,-47821.6484375,-37848.20703125,-38161.84765625,-19518.974609375,-27515.9140625,-40258.734375,-42758.640625,-46621.515625
302919.4356741,No Event,-47880.56640625,-37876.59375,-37818.125,-19561.7109375,-27569.0,-40195.87890625,-42819.4375,-46683.7421875
302919.4357487001,No Event,-47850.078125,-37863.33984375,-38228.34375,-19552.8359375,-27544.970703125,-40190.26953125,-42796.59375,-46655.80078125
302919.4396741,No Event,-47835.68359375,-37864.45703125,-38121.4375,-19528.138671875,-27542.53515625,-40269.26171875,-42779.65234375,-46638.5234375
302919.44367410004,No Event,-47855.46484375,-37876.73046875,-38270.2109375,-19560.7265625,-27568.171875,-40222.4765625,-42801.3984375,-46658.8203125
302919.44767410005,No Event,-47908.328125,-37891.37109375,-37967.34375,-19603.888671875,-27607.712890625,-40135.93359375,-42846.796875,-46711.0546875
302919.45167410007,No Event,-47896.7265625,-37888.0625,-37801.359375,-19584.509765625,-27592.15625,-40176.8125,-42836.26953125,-46698.8515625
302919.4556741001,No Event,-47844.265625,-37872.1015625,-38076.890625,-19520.224609375,-27529.34765625,-40269.7734375,-42787.85546875,-46647.734375
302919.4596741001,No Event,-47845.609375,-37874.60546875,-38287.28515625,-19539.603515625,-27550.224609375,-40238.953125,-42792.390625,-46650.03515625
302919.4636741001,No Event,-47891.16015625,-37884.62109375,-38034.15234375,-19597.919921875,-27601.85546875,-40138.4140625,-42837.5859375,-46695.03125
302919.46767410013,No Event,-47899.09375,-37885.6015625,-37796.15234375,-19597.0703125,-27589.0703125,-40162.1953125,-42841.58984375,-46702.26953125
302919.5470777,No Event,-47846.30078125,-37867.74609375,-38016.875,-19548.58984375,-27543.673828125,-40256.51953125,-42790.42578125,-46648.11328125
302919.5510777,No Event,-47831.32421875,-37861.41796875,-38275.9765625,-19546.421875,-27543.271484375,-40247.15625,-42780.27734375,-46636.82421875
302919.5550777,No Event,-47880.0078125,-37873.01953125,-38086.41015625,-19588.107421875,-27587.015625,-40145.09765625,-42827.55078125,-46687.609375
302919.5590777,No Event,-47896.03515625,-37877.578125,-37799.3046875,-19589.494140625,-27583.236328125,-40138.59375,-42841.34375,-46698.42578125
302919.56307770003,No Event,-47843.37109375,-37860.48046875,-37952.45703125,-19533.94921875,-27536.142578125,-40235.41796875,-42793.33203125,-46645.4296875
302919.56707770005,No Event,-47813.62109375,-37847.8046875,-38248.05859375,-19514.794921875,-27522.015625,-40246.68359375,-42769.03515625,-46615.546875
302919.57107770006,No Event,-47865.5,-37864.90625,-38146.73828125,-19574.7421875,-27572.576171875,-40155.55859375,-42815.4375,-46667.87109375
302919.5750777001,No Event,-47899.921875,-37876.23828125,-37822.953125,-19599.708984375,-27601.1640625,-40129.02734375,-42844.0234375,-46701.46484375
302919.5790777001,No Event,-47848.625,-37853.83984375,-37887.63671875,-19555.8984375,-27545.10546875,-40212.1953125,-42794.73828125,-46650.9296875
302919.5795515,No Event,-47846.66015625,-37846.21875,-38182.58984375,-19550.556640625,-27545.5078125,-40153.09765625,-42783.5859375,-46642.97265625
302919.5830777001,No Event,-47812.4609375,-37839.0234375,-38199.3984375,-19524.517578125,-27507.330078125,-40244.0703125,-42755.734375,-46612.125
302919.5835515,No Event,-47886.53515625,-37858.8046875,-37841.99609375,-19589.5390625,-27579.080078125,-40099.54296875,-42822.38671875,-46683.67578125
302919.5875515,No Event,-47867.890625,-37865.0625,-37846.6875,-19563.275390625,-27550.71484375,-40197.7578125,-42805.4453125,-46665.79296875
302919.5915515,No Event,-47821.9140625,-37852.12109375,-38165.08984375,-19524.806640625,-27524.966796875,-40259.46875,-42765.32421875,-46620.7109375
302919.59555150004,No Event,-47841.359375,-37860.8359375,-38234.08984375,-19555.943359375,-27554.873046875,-40190.984375,-42789.80078125,-46644.44921875
302919.59955150005,No Event,-47900.21484375,-37889.046875,-37915.48828125,-19605.162109375,-27600.24609375,-40125.3828125,-42844.60546875,-46702.31640625
302919.60355150007,No Event,-47877.078125,-37883.234375,-37824.203125,-19577.19921875,-27570.564453125,-40190.203125,-42819.37109375,-46677.52734375
302919.6075515001,No Event,-47815.61328125,-37855.203125,-38112.453125,-19524.919921875,-27507.486328125,-40256.20703125,-42761.75,-46616.375
302919.6115515001,No Event,-47828.57421875,-37862.71484375,-38259.75,-19526.349609375,-27523.0,-40204.41796875,-42773.59375,-46630.6796875
302919.6140883,No Event,-47882.109375,-37883.2578125,-37791.81640625,-19565.666015625,-27570.18359375,-40164.7890625,-42819.81640625,-46680.30078125
302919.6155515001,No Event,-47886.69140625,-37883.76953125,-37965.9140625,-19584.84375,-27566.763671875,-40119.6171875,-42826.8359375,-46688.3671875
302919.6180883,No Event,-47831.99609375,-37866.671875,-38052.234375,-19505.830078125,-27533.572265625,-40253.7265625,-42769.01171875,-46627.3046875
302919.6220883,No Event,-47820.796875,-37854.3984375,-38266.05078125,-19524.919921875,-27520.630859375,-40220.265625,-42759.22265625,-46616.57421875
302919.6260883,No Event,-47866.86328125,-37864.66015625,-38016.5390625,-19579.2109375,-27563.634765625,-40121.046875,-42807.1875,-46666.3515625
302919.63008830004,No Event,-47875.24609375,-37868.90625,-37769.328125,-19582.744140625,-27568.10546875,-40140.40234375,-42814.56640625,-46675.62890625
302919.63408830005,No Event,-47831.9296875,-37859.67578125,-37984.64453125,-19543.181640625,-27516.607421875,-40238.50390625,-42770.6875,-46626.56640625
302919.63808830007,No Event,-47824.91015625,-37863.25,-38261.06640625,-19534.576171875,-27509.275390625,-40240.4921875,-42765.52734375,-46618.6328125
302919.6420883001,No Event,-47869.3671875,-37875.12109375,-38095.3984375,-19569.935546875,-27575.056640625,-40145.38671875,-42810.87890625,-46665.90625
302919.6460883001,No Event,-47895.18359375,-37884.171875,-37800.93359375,-19586.251953125,-27591.23828125,-40139.08203125,-42828.9375,-46689.328125
302919.64935809997,No Event,-47823.61328125,-37864.0546875,-38239.67578125,-19521.72265625,-27526.552734375,-40255.1328125,-42765.4375,-46620.73046875
302919.6500883001,No Event,-47849.1171875,-37870.1796875,-37934.91015625,-19538.978515625,-27539.16015625,-40233.67578125,-42783.51953125,-46643.8203125
302919.6533581,No Event,-47861.140625,-37874.78515625,-38162.6328125,-19565.30859375,-27560.169921875,-40165.21484375,-42807.12109375,-46660.02734375
302919.6573581,No Event,-47890.37890625,-37879.234375,-37823.82421875,-19588.64453125,-27575.861328125,-40124.01953125,-42832.1328125,-46688.30078125
302919.6613581,No Event,-47840.421875,-37855.5390625,-37880.59765625,-19540.990234375,-27540.45703125,-40208.0390625,-42781.37109375,-46638.1875
302919.6653581,No Event,-47804.4140625,-37841.81640625,-38191.26171875,-19515.576171875,-27518.55078125,-40243.7109375,-42745.453125,-46599.7421875
302919.66935810004,No Event,-47838.58984375,-37851.0234375,-38190.234375,-19546.443359375,-27547.318359375,-40161.2109375,-42777.1484375,-46632.421875
302919.67335810006,No Event,-47881.81640625,-37865.2421875,-37851.94140625,-19579.94921875,-27578.87890625,-40103.43359375,-42816.93359375,-46677.9765625
302919.6773581001,No Event,-47849.51953125,-37857.70703125,-37832.33984375,-19548.3671875,-27540.61328125,-40184.99609375,-42789.8671875,-46644.46875
302919.6813581001,No Event,-47801.91015625,-37842.17578125,-38147.36328125,-19495.169921875,-27510.21484375,-40245.87890625,-42749.72265625,-46595.83203125
302919.68319769995,No Event,-47873.19140625,-37862.8046875,-37906.66015625,-19575.76953125,-27580.98046875,-40106.5390625,-42818.5234375,-46667.359375
302919.6853581001,No Event,-47828.7109375,-37854.33203125,-38236.5703125,-19534.10546875,-27548.994140625,-40186.08984375,-42777.99609375,-46623.14453125
302919.68719769997,No Event,-47853.38671875,-37855.18359375,-37795.16796875,-19561.21875,-27558.78515625,-40167.89453125,-42799.6328125,-46649.34375
302919.6911977,No Event,-47808.68359375,-37843.3359375,-38089.4296875,-19524.361328125,-27511.421875,-40247.8046875,-42757.58984375,-46604.1484375
302919.6951977,No Event,-47817.04296875,-37842.77734375,-38255.390625,-19516.873046875,-27506.078125,-40202.62890625,-42762.84375,-46610.47265625
302919.6991977,No Event,-47872.5859375,-37858.2890625,-37968.23828125,-19579.681640625,-27574.095703125,-40114.09375,-42815.234375,-46663.84765625
302919.70319770003,No Event,-47860.6953125,-37848.609375,-37770.71484375,-19558.6484375,-27562.763671875,-40144.8515625,-42801.22265625,-46648.87109375
302919.70719770005,No Event,-47798.7578125,-37822.66015625,-38017.8359375,-19515.419921875,-27506.48046875,-40228.35546875,-42742.66015625,-46589.10546875
302919.71119770006,No Event,-47791.984375,-37819.30859375,-38242.76171875,-19543.740234375,-27508.11328125,-40199.07421875,-42740.671875,-46582.84765625
302919.7151977001,No Event,-47858.125,-37847.24609375,-38021.234375,-19596.19921875,-27557.3984375,-40112.59765625,-42800.59375,-46646.99609375
302919.7191977001,No Event,-47867.6484375,-37851.0234375,-37773.30859375,-19583.63671875,-27548.5703125,-40128.17578125,-42806.31640625,-46655.80078125
302919.720133,No Event,-47817.2421875,-37835.53515625,-37976.75390625,-19545.21484375,-27507.486328125,-40228.4921875,-42763.4921875,-46608.484375
302919.724133,No Event,-47796.9921875,-37827.5546875,-38254.2734375,-19539.984375,-27498.6796875,-40227.0390625,-42743.8671875,-46588.1640625
302919.728133,No Event,-47842.703125,-37838.57421875,-38091.0390625,-19579.771484375,-27528.654296875,-40125.71875,-42784.234375,-46634.45703125
302919.73213300004,No Event,-47868.36328125,-37846.01953125,-37782.5859375,-19588.95703125,-27553.93359375,-40114.2734375,-42805.53515625,-46662.05859375
302919.73613300006,No Event,-47815.41015625,-37822.63671875,-37901.83203125,-19534.865234375,-27508.828125,-40204.953125,-42752.515625,-46609.2890625
302919.7401330001,No Event,-47785.03515625,-37810.45703125,-38206.8203125,-19530.373046875,-27489.203125,-40221.29296875,-42727.50390625,-46574.2421875
302919.7441330001,No Event,-47823.48046875,-37821.72265625,-38139.38671875,-19570.13671875,-27529.7265625,-40129.7421875,-42769.52734375,-46613.71484375
302919.7481330001,No Event,-47869.03125,-37840.7421875,-37815.5078125,-19604.46875,-27564.595703125,-40104.68359375,-42812.28515625,-46663.35546875
302919.7521330001,No Event,-47837.671875,-37832.36328125,-37864.703125,-19576.23828125,-27528.900390625,-40204.10546875,-42780.58984375,-46630.6796875
302919.75613300013,No Event,-47797.86328125,-37813.02734375,-38179.91015625,-19555.4296875,-27495.796875,-40239.734375,-42741.87890625,-46583.8515625
302919.7567631,No Event,-47831.14453125,-37824.8046875,-38205.0546875,-19598.322265625,-27532.208984375,-40163.46875,-42775.6953125,-46615.81640625
302919.7607631,No Event,-47884.43359375,-37846.6875,-37876.171875,-19640.232421875,-27567.009765625,-40111.5703125,-42824.87109375,-46667.9609375
302919.7647631,No Event,-47857.51953125,-37836.96484375,-37836.5625,-19605.05078125,-27531.515625,-40192.03515625,-42798.60546875,-46638.4140625
302919.76876310003,No Event,-47814.3359375,-37820.08984375,-38142.625,-19591.4375,-27516.271484375,-40253.61328125,-42766.0390625,-46591.31640625
302919.77276310005,No Event,-47828.57421875,-37818.83984375,-38248.3515625,-19621.904296875,-27541.349609375,-40188.94921875,-42782.04296875,-46602.984375
302919.77676310006,No Event,-47878.21875,-37830.796875,-37942.17578125,-19665.646484375,-27587.908203125,-40114.140625,-42830.5703125,-46652.94140625
302919.7807631001,No Event,-47868.71875,-37828.7421875,-37806.56640625,-19649.44140625,-27571.771484375,-40177.3046875,-42823.4609375,-46645.36328125
302919.7828536,No Event,-47876.140625,-37844.1171875,-37809.36328125,-19707.064453125,-27658.427734375,-40175.671875,-42860.07421875,-46659.6015625
302919.7847631001,No Event,-47821.46875,-37814.2109375,-38068.88671875,-19621.5234375,-27549.173828125,-40253.19140625,-42784.30078125,-46599.1640625
302919.7868536,No Event,-47834.51953125,-37835.40234375,-38017.8359375,-19685.427734375,-27642.71484375,-40259.15625,-42822.07421875,-46617.1328125
302919.7887631001,No Event,-47833.94140625,-37829.58984375,-38272.2421875,-19656.50390625,-27594.189453125,-40224.01953125,-42806.31640625,-46613.734375
302919.7908536,No Event,-47828.46484375,-37839.6484375,-38282.99609375,-19700.939453125,-27658.18359375,-40247.9140625,-42822.12109375,-46613.578125
302919.7927631001,No Event,-47882.2421875,-37849.7734375,-38037.640625,-19711.01953125,-27652.638671875,-40152.16015625,-42862.3984375,-46666.57421875
302919.79485360003,No Event,-47880.20703125,-37861.39453125,-38116.296875,-19758.0703125,-27720.90234375,-40163.91796875,-42873.91015625,-46664.609375
302919.79885360005,No Event,-47895.80859375,-37865.33203125,-37836.71875,-19770.341796875,-27745.51171875,-40172.05078125,-42890.96484375,-46681.88671875
302919.80285360006,No Event,-47857.72265625,-37857.6875,-37975.3671875,-19753.5546875,-27736.2578125,-40268.3671875,-42866.421875,-46652.984375
302919.8068536001,No Event,-47852.08984375,-37866.5390625,-38288.2265625,-19770.05078125,-27733.955078125,-40284.5703125,-42866.04296875,-46644.55859375
302919.8108536001,No Event,-47882.28515625,-37874.828125,-38208.49609375,-19816.51953125,-27793.92578125,-40191.20703125,-42901.58203125,-46671.71484375
302919.8148536001,No Event,-47895.5625,-37871.65625,-37887.703125,-19819.291015625,-27815.560546875,-40164.69921875,-42920.0,-46686.6484375
302919.815975,No Event,-47837.2265625,-37866.78125,-38254.40625,-19798.125,-27761.11328125,-40283.1171875,-42880.859375,-46642.2109375
302919.8188536001,No Event,-47856.0234375,-37861.21875,-37937.75,-19790.435546875,-27775.373046875,-40250.1953125,-42893.04296875,-46656.7421875
302919.819975,No Event,-47873.34765625,-37884.3515625,-38277.33984375,-19834.021484375,-27816.5,-40215.5703125,-42911.75,-46673.66015625
302919.823975,No Event,-47918.25,-37901.71875,-37957.8671875,-19858.51953125,-27872.0,-40185.46484375,-42947.58203125,-46713.91796875
302919.827975,No Event,-47884.90234375,-37882.1171875,-37904.421875,-19811.24609375,-27828.302734375,-40245.74609375,-42907.4140625,-46675.046875
302919.83197500004,No Event,-47861.140625,-37885.71484375,-38217.3046875,-19796.248046875,-27802.798828125,-40297.58203125,-42891.6328125,-46649.58984375
302919.83597500005,No Event,-47867.98046875,-37890.41015625,-38325.21875,-19801.43359375,-27811.873046875,-40237.58984375,-42906.4296875,-46665.61328125
302919.83997500007,No Event,-47892.48046875,-37890.5859375,-38009.07421875,-19816.162109375,-27842.5390625,-40173.39453125,-42936.00390625,-46694.9609375
302919.8439750001,No Event,-47884.61328125,-37893.29296875,-37876.015625,-19773.380859375,-27826.513671875,-40236.91796875,-42924.671875,-46686.109375
302919.8479750001,No Event,-47856.671875,-37898.61328125,-38158.67578125,-19758.62890625,-27801.904296875,-40304.44140625,-42897.734375,-46657.63671875
302919.8519750001,No Event,-47868.20703125,-37912.11328125,-38354.96875,-19763.546875,-27808.029296875,-40263.44921875,-42907.4375,-46672.1640625
302919.8560254,No Event,-47905.0625,-37921.43359375,-38082.9921875,-19767.078125,-27833.15234375,-40187.8125,-42937.5234375,-46710.9453125
302919.8600254,No Event,-47904.5703125,-37924.00390625,-37863.54296875,-19746.470703125,-27812.54296875,-40231.7109375,-42933.453125,-46710.49609375
302919.8640254,No Event,-47869.859375,-37920.5625,-38084.6015625,-19707.15234375,-27772.869140625,-40309.671875,-42902.36328125,-46678.625
302919.86802540004,No Event,-47858.5703125,-37918.19140625,-38343.234375,-19702.4375,-27777.2734375,-40274.8046875,-42888.16796875,-46666.328125
302919.87202540005,No Event,-47895.8984375,-37927.87109375,-38143.83203125,-19729.125,-27812.87890625,-40191.8359375,-42923.484375,-46708.3046875
302919.87602540007,No Event,-47904.4140625,-37926.0390625,-37858.35546875,-19716.072265625,-27813.125,-40214.05078125,-42931.0859375,-46721.6953125
302919.8800254001,No Event,-47865.30078125,-37907.84375,-38001.54296875,-19667.099609375,-27767.125,-40282.8046875,-42890.78515625,-46676.5
302919.8840254001,No Event,-47855.421875,-37906.94921875,-38312.765625,-19660.728515625,-27743.96875,-40273.39453125,-42874.9375,-46661.859375
302919.8880254001,No Event,-47886.4453125,-37909.4296875,-38198.640625,-19685.583984375,-27769.181640625,-40186.15625,-42901.58203125,-46695.1875
302919.8920254001,No Event,-47897.41796875,-37900.109375,-37867.96875,-19683.86328125,-27789.0078125,-40180.63671875,-42914.90234375,-46706.96484375
302920.05136469996,No Event,-47862.6171875,-37889.3125,-37942.21875,-19649.732421875,-27765.470703125,-40268.1640625,-42890.44921875,-46677.171875
302920.0553647,No Event,-47839.7734375,-37886.80859375,-38271.75390625,-19638.5546875,-27737.642578125,-40273.86328125,-42867.5625,-46654.1015625
302920.0593647,No Event,-47849.296875,-37873.4453125,-38242.203125,-19644.61328125,-27731.5625,-40176.79296875,-42871.3828125,-46665.03515625
302920.0633647,No Event,-47874.30859375,-37866.24609375,-37882.83203125,-19644.232421875,-27742.158203125,-40152.00390625,-42894.5390625,-46694.5390625
302920.0673647,No Event,-47863.17578125,-37872.21484375,-37878.83203125,-19627.15625,-27733.6640625,-40246.26171875,-42889.35546875,-46686.84765625
302920.07136470004,No Event,-47833.0,-37874.0703125,-38229.59765625,-19609.162109375,-27711.267578125,-40286.26953125,-42869.4609375,-46662.375
302920.07536470005,No Event,-47851.5078125,-37882.83203125,-38306.91015625,-19621.658203125,-27713.97265625,-40215.796875,-42883.87890625,-46680.74609375
302920.07936470007,No Event,-47889.05859375,-37891.1484375,-37962.203125,-19625.2109375,-27729.685546875,-40175.8984375,-42915.52734375,-46721.73828125
302920.0833647001,No Event,-47877.59375,-37889.46875,-37857.05859375,-19605.654296875,-27726.4453125,-40255.4453125,-42903.4375,-46715.4140625
302920.08507489995,No Event,-47838.92578125,-37884.28515625,-38335.4765625,-19590.41015625,-27703.736328125,-40225.2265625,-42865.01171875,-46669.50390625
302920.0873647001,No Event,-47837.984375,-37879.30078125,-38165.2890625,-19577.267578125,-27695.197265625,-40290.7421875,-42860.90234375,-46668.07421875
302920.08907489997,No Event,-47883.0234375,-37896.7578125,-38031.515625,-19609.341796875,-27741.576171875,-40177.39453125,-42903.703125,-46722.43359375
302920.0930749,No Event,-47887.18359375,-37901.60546875,-37839.08984375,-19585.24609375,-27726.779296875,-40241.03125,-42899.27734375,-46723.68359375
302920.0970749,No Event,-47850.16796875,-37895.73046875,-38099.0625,-19557.8203125,-27685.697265625,-40291.3671875,-42859.06640625,-46676.05078125
302920.1010749,No Event,-47841.25,-37896.48828125,-38354.02734375,-19557.8203125,-27670.4765625,-40242.484375,-42846.28125,-46662.41796875
302920.1050749,No Event,-47875.828125,-37902.6796875,-38094.66015625,-19572.193359375,-27687.865234375,-40164.87890625,-42874.08984375,-46698.5390625
302920.10907490004,No Event,-47886.53515625,-37903.6171875,-37815.91015625,-19559.18359375,-27683.775390625,-40207.8828125,-42878.35546875,-46709.0
302920.11307490006,No Event,-47857.296875,-37899.75390625,-38020.98828125,-19535.111328125,-27652.998046875,-40280.9296875,-42849.5234375,-46678.3984375
302920.11670959997,No Event,-47908.484375,-37924.8984375,-37844.36328125,-19585.201171875,-27693.609375,-40221.515625,-42903.7265625,-46742.99609375
302920.1170749001,No Event,-47829.671875,-37893.44921875,-38332.81640625,-19528.294921875,-27628.34375,-40247.9375,-42822.92578125,-46653.1875
302920.1207096,No Event,-47873.27734375,-37905.40625,-37952.12109375,-19545.83984375,-27649.7109375,-40284.34765625,-42858.375,-46702.875
302920.1210749001,No Event,-47873.01171875,-37910.14453125,-38166.96875,-19568.7734375,-27668.15234375,-40183.23046875,-42868.56640625,-46706.83203125
302920.1247096,No Event,-47837.875,-37893.0703125,-38296.02734375,-19532.67578125,-27616.966796875,-40263.62890625,-42820.4453125,-46665.19140625
302920.1287096,No Event,-47863.0859375,-37899.68359375,-38227.203125,-19564.4140625,-27645.240234375,-40184.94921875,-42852.0703125,-46694.046875
302920.13270960003,No Event,-47903.85546875,-37912.8515625,-37864.66015625,-19576.171875,-27676.33203125,-40198.80859375,-42891.3203125,-46738.30078125
302920.13670960005,No Event,-47887.4296875,-37907.5546875,-37887.81640625,-19558.380859375,-27657.2890625,-40276.76953125,-42869.05859375,-46717.62890625
302920.14070960006,No Event,-47855.8671875,-37903.5078125,-38256.5078125,-19549.88671875,-27625.28125,-40285.109375,-42844.73828125,-46681.953125
302920.1447096001,No Event,-47875.44921875,-37911.015625,-38289.96875,-19562.537109375,-27638.9609375,-40206.09375,-42856.453125,-46691.83203125
302920.1487096001,No Event,-47900.48046875,-37902.3671875,-37907.015625,-19581.0,-27660.328125,-40182.7578125,-42891.859375,-46721.42578125
302920.1514036,No Event,-47871.4453125,-37916.6953125,-38219.3828125,-19560.994140625,-27638.490234375,-40295.0546875,-42852.296875,-46681.3046875
302920.1527096001,No Event,-47894.06640625,-37905.921875,-37838.7109375,-19574.451171875,-27654.3828125,-40263.3828125,-42879.71875,-46713.06640625
302920.1554036,No Event,-47871.22265625,-37900.53515625,-38331.140625,-19572.505859375,-27637.5078125,-40209.08984375,-42845.92578125,-46680.07421875
302920.15940360003,No Event,-47892.5703125,-37889.3125,-37956.99609375,-19582.85546875,-27654.271484375,-40158.57421875,-42870.84765625,-46703.65625
302920.16340360005,No Event,-47886.64453125,-37888.53125,-37788.57421875,-19574.8984375,-27638.603515625,-40226.8359375,-42872.3671875,-46696.68359375
302920.16740360006,No Event,-47847.91015625,-37878.40625,-38089.18359375,-19536.36328125,-27592.357421875,-40259.671875,-42819.81640625,-46650.68359375
302920.1714036001,No Event,-47850.63671875,-37891.83984375,-38333.77734375,-19557.642578125,-27603.779296875,-40211.16796875,-42828.98046875,-46657.3671875
302920.1754036001,No Event,-47903.9453125,-37917.9921875,-38063.546875,-19585.380859375,-27639.138671875,-40177.1484375,-42881.77734375,-46715.63671875
302920.1794036001,No Event,-47912.88671875,-37909.02734375,-37796.734375,-19574.451171875,-27633.818359375,-40219.03515625,-42879.921875,-46723.39453125
302920.1834036001,No Event,-47862.03515625,-37888.12890625,-38022.9765625,-19545.55078125,-27600.203125,-40272.859375,-42847.64453125,-46685.21875
302920.18740360014,No Event,-47834.25390625,-37885.984375,-38335.4765625,-19538.755859375,-27573.4921875,-40223.55078125,-42813.671875,-46651.421875
302920.19067579997,No Event,-47907.25390625,-37950.421875,-38173.47265625,-19595.013671875,-27643.498046875,-40186.24609375,-42893.7578125,-46718.67578125
302920.1946758,No Event,-47908.52734375,-37922.796875,-37796.578125,-19567.07421875,-27626.666015625,-40194.00390625,-42879.36328125,-46720.5546875
302920.1986758,No Event,-47882.04296875,-37904.35546875,-37932.51953125,-19543.6953125,-27585.5625,-40243.48828125,-42847.04296875,-46684.76953125
302920.2026758,No Event,-47848.9609375,-37889.6953125,-38285.1171875,-19527.802734375,-27569.423828125,-40237.20703125,-42826.43359375,-46662.015625
302920.20667580003,No Event,-47845.0703125,-37850.30859375,-38102.55078125,-19526.193359375,-27565.9375,-40125.4921875,-42812.95703125,-46668.54296875
302920.21067580004,No Event,-47932.80078125,-37940.43359375,-37809.51953125,-19606.279296875,-27638.1328125,-40190.29296875,-42909.71484375,-46742.34765625
302920.21467580006,No Event,-47909.80078125,-37939.3359375,-37910.2109375,-19586.96875,-27617.5703125,-40274.9375,-42880.7265625,-46725.60546875
302920.2171141,No Event,-47850.4140625,-37837.6796875,-37738.796875,-19514.681640625,-27556.458984375,-40173.73046875,-42813.8046875,-46646.66015625
302920.2186758001,No Event,-47902.515625,-37978.36328125,-38314.64453125,-19577.244140625,-27606.259765625,-40281.84375,-42872.390625,-46697.3984375
302920.2211141,No Event,-47829.11328125,-37851.16015625,-38162.65234375,-19525.27734375,-27550.759765625,-40228.55859375,-42802.29296875,-46637.8984375
302920.2226758001,No Event,-47899.9453125,-37936.20703125,-38253.51171875,-19562.8046875,-27589.09375,-40227.75390625,-42868.0078125,-46746.59375
302920.22511410003,No Event,-47831.37109375,-37851.359375,-38256.8203125,-19566.8515625,-27556.951171875,-40148.78515625,-42808.26171875,-46632.6015625
302920.2266758001,No Event,-47845.00390625,-37814.2109375,-37738.9765625,-19525.857421875,-27562.3828125,-40084.3203125,-42802.65234375,-46640.984375
302920.22911410005,No Event,-47903.41015625,-37909.1171875,-37939.1796875,-19639.830078125,-27619.044921875,-40159.9140625,-42893.15234375,-46700.9765625
302920.23311410006,No Event,-47904.078125,-37897.00390625,-37781.53515625,-19571.322265625,-27611.580078125,-40237.1640625,-42886.08984375,-46712.08203125
302920.2371141001,No Event,-47889.26171875,-37913.74609375,-38170.34375,-19581.513671875,-27599.509765625,-40302.07421875,-42870.15234375,-46705.33203125
302920.2411141001,No Event,-47852.828125,-37887.4140625,-38358.5234375,-19587.638671875,-27559.41015625,-40212.17578125,-42833.140625,-46663.9609375
302920.2451141001,No Event,-47862.57421875,-37867.0078125,-37960.66015625,-19578.474609375,-27569.736328125,-40117.26953125,-42834.30078125,-46667.58203125
302920.2491141001,No Event,-47923.28125,-37928.20703125,-37803.4609375,-19647.96484375,-27646.224609375,-40239.109375,-42899.390625,-46752.18359375
302920.25311410014,No Event,-47937.83203125,-37996.578125,-38159.14453125,-19632.341796875,-27618.28515625,-40334.9296875,-42884.4375,-46744.96484375
302920.26151439996,No Event,-47850.97265625,-37901.76171875,-38353.515625,-19528.96484375,-27540.5234375,-40244.6953125,-42799.94921875,-46680.90234375
302920.2655144,No Event,-47795.98828125,-37778.78515625,-37963.5234375,-19533.771484375,-27543.71875,-40062.57421875,-42781.84375,-46606.828125
302920.2695144,No Event,-47916.91015625,-37903.73046875,-37772.68359375,-19631.849609375,-27624.767578125,-40203.61328125,-42895.2109375,-46714.09375
302920.2735144,No Event,-47927.70703125,-37936.05078125,-38035.359375,-19611.15234375,-27601.611328125,-40308.48828125,-42881.62109375,-46730.7265625
302920.2775144,No Event,-47817.46875,-37832.33984375,-38296.8515625,-19552.2109375,-27520.8984375,-40232.60546875,-42784.50390625,-46696.75
302920.28151440003,No Event,-47800.7265625,-37792.375,-38051.23046875,-19533.79296875,-27524.072265625,-40067.26953125,-42769.3046875,-46595.36328125
302920.28551440005,No Event,-47836.734375,-37816.671875,-37714.76953125,-19550.333984375,-27554.42578125,-40118.05078125,-42820.33203125,-46640.4921875
302920.28807199997,No Event,-47854.16796875,-37812.71484375,-37727.21875,-19542.5546875,-27539.517578125,-40121.40234375,-42816.0625,-46659.7578125
302920.28951440006,No Event,-47859.7109375,-37877.87109375,-37915.1953125,-19565.599609375,-27553.3984375,-40244.671875,-42835.57421875,-46674.7109375
302920.292072,No Event,-47854.94921875,-37842.30859375,-37809.25,-19524.5625,-27541.349609375,-40224.37890625,-42816.93359375,-46665.703125
302920.2935144001,No Event,-47827.8828125,-37890.3203125,-38319.13671875,-19541.03515625,-27515.19921875,-40228.06640625,-42796.59375,-46613.37890625
302920.296072,No Event,-47816.796875,-37834.88671875,-38224.41015625,-19501.427734375,-27510.90625,-40227.21875,-42779.02734375,-46623.52734375
302920.2975144001,No Event,-47813.265625,-37820.29296875,-38169.9609375,-19530.640625,-27511.935546875,-40117.515625,-42783.78515625,-46611.390625
302920.300072,No Event,-47823.9921875,-37833.6796875,-38234.37890625,-19520.3828125,-27515.935546875,-40149.90234375,-42792.390625,-46631.41796875
302920.304072,No Event,-47867.9375,-37848.25390625,-37810.92578125,-19527.109375,-27534.33203125,-40137.85546875,-42829.67578125,-46675.359375
302920.30807200004,No Event,-47867.17578125,-37855.4296875,-37764.79296875,-19517.365234375,-27546.087890625,-40226.234375,-42838.37109375,-46680.3203125
302920.31207200006,No Event,-47831.1015625,-37856.546875,-38184.53515625,-19504.490234375,-27525.94921875,-40256.609375,-42817.203125,-46648.29296875
302920.3160720001,No Event,-47818.8515625,-37840.96875,-38284.6484375,-19484.619140625,-27504.068359375,-40166.91015625,-42792.28125,-46632.19921875
302920.3200720001,No Event,-47849.6328125,-37828.31640625,-37865.5078125,-19494.72265625,-27525.748046875,-40112.640625,-42820.30859375,-46659.9140625
302920.32237239997,No Event,-47835.55078125,-37844.609375,-38091.6875,-19493.828125,-27537.037109375,-40246.05859375,-42810.296875,-46652.203125
302920.3240720001,No Event,-47871.89453125,-37847.359375,-37727.33203125,-19515.21875,-27560.169921875,-40201.37890625,-42848.4296875,-46684.14453125
302920.3263724,No Event,-47808.4609375,-37823.33203125,-38299.84765625,-19478.091796875,-27503.396484375,-40169.1015625,-42777.8203125,-46621.87109375
302920.3303724,No Event,-47843.125,-37815.10546875,-37931.26953125,-19501.763671875,-27529.90625,-40101.64453125,-42801.5546875,-46650.16796875
302920.3343724,No Event,-47872.16015625,-37830.75390625,-37688.68359375,-19529.591796875,-27559.388671875,-40171.16015625,-42830.43359375,-46682.19921875
302920.33837240003,No Event,-47837.26953125,-37827.04296875,-37999.8671875,-19508.53515625,-27530.64453125,-40232.06640625,-42797.9375,-46651.04296875
302920.34237240005,No Event,-47807.33984375,-37813.71875,-38301.32421875,-19497.337890625,-27500.9609375,-40181.328125,-42767.3125,-46628.2421875
302920.34637240006,No Event,-47835.37109375,-37804.7109375,-38007.59765625,-19515.576171875,-27521.703125,-40102.29296875,-42793.62109375,-46643.484375
302920.3503724001,No Event,-47868.09375,-37814.48046875,-37684.4609375,-19526.595703125,-27543.271484375,-40154.796875,-42823.19140625,-46673.66015625
302920.3543724001,No Event,-47846.43359375,-37823.109375,-37926.05859375,-19519.0859375,-27528.296875,-40228.3125,-42806.47265625,-46647.46484375
302920.3553815,No Event,-47831.19140625,-37804.78125,-38094.32421875,-19510.859375,-27510.572265625,-40119.078125,-42790.44921875,-46639.70703125
302920.3583724001,No Event,-47809.734375,-37816.515625,-38304.54296875,-19503.39453125,-27501.943359375,-40204.39453125,-42777.19140625,-46619.7265625
302920.3593815,No Event,-47867.9609375,-37812.6484375,-37704.98046875,-19530.484375,-27533.83984375,-40150.640625,-42827.88671875,-46677.86328125
302920.3633815,No Event,-47860.875,-37828.98828125,-37859.296875,-19528.517578125,-27541.439453125,-40241.96875,-42823.9765625,-46668.67578125
302920.3673815,No Event,-47832.01953125,-37840.83203125,-38294.1484375,-19518.9296875,-27534.755859375,-40237.921875,-42797.77734375,-46641.1171875
302920.37138150004,No Event,-47829.53515625,-37821.58984375,-38194.953125,-19512.87109375,-27530.197265625,-40137.38671875,-42792.63671875,-46635.70703125
302920.37538150005,No Event,-47860.8515625,-37815.80078125,-37759.78515625,-19517.119140625,-27547.564453125,-40135.70703125,-42824.06640625,-46664.296875
302920.37938150007,No Event,-47866.484375,-37840.09375,-37815.5546875,-19517.56640625,-27552.861328125,-40246.015625,-42840.2265625,-46673.83984375
302920.3833815001,No Event,-47829.359375,-37838.0625,-38248.55078125,-19493.26953125,-27514.595703125,-40256.65234375,-42796.66015625,-46639.23828125
302920.3873815001,No Event,-47820.125,-37820.46875,-38260.80078125,-19484.775390625,-27504.984375,-40156.05078125,-42788.90625,-46625.0
302920.3913815001,No Event,-47860.26953125,-37825.1875,-37827.69140625,-19508.087890625,-27541.86328125,-40147.19921875,-42834.63671875,-46670.375
302920.3972273,No Event,-47875.73828125,-37843.9609375,-37764.43359375,-19512.826171875,-27555.767578125,-40235.98046875,-42843.19921875,-46681.9296875
302920.4012273,No Event,-47840.625,-37847.44921875,-38179.484375,-19488.10546875,-27514.416015625,-40264.56640625,-42802.44921875,-46642.3671875
302920.4052273,No Event,-47822.6953125,-37829.76953125,-38300.2265625,-19463.36328125,-27493.13671875,-40184.14453125,-42774.46484375,-46624.890625
302920.4092273,No Event,-47852.26953125,-37812.421875,-37868.4140625,-19468.681640625,-27511.80078125,-40130.234375,-42801.2890625,-46664.31640625
302920.41322730004,No Event,-47868.65234375,-37822.86328125,-37698.80859375,-19478.5625,-27537.37109375,-40207.01171875,-42823.953125,-46680.92578125
302920.41722730006,No Event,-47843.70703125,-37837.3671875,-38092.3359375,-19466.380859375,-27524.654296875,-40268.90234375,-42804.9765625,-46644.0
302920.4212273001,No Event,-47824.8203125,-37829.1875,-38323.2265625,-19452.923828125,-27498.904296875,-40201.9375,-42782.06640625,-46626.65625
302920.4252273001,No Event,-47854.34765625,-37819.6875,-37956.75,-19464.927734375,-27514.259765625,-40135.8203125,-42806.05078125,-46657.1875
302920.4292273001,No Event,-47875.71484375,-37825.74609375,-37690.5390625,-19475.767578125,-27535.830078125,-40199.3671875,-42829.875,-46679.2265625
302920.43012639997,No Event,-47831.63671875,-37839.6484375,-38336.08203125,-19455.3828125,-27500.0,-40229.18359375,-42787.49609375,-46634.390625
302920.4332273001,No Event,-47861.12109375,-37844.9921875,-38012.44921875,-19472.974609375,-27527.3125,-40275.4296875,-42818.54296875,-46664.2734375
302920.4341264,No Event,-47849.0703125,-37824.3828125,-38041.08203125,-19466.267578125,-27513.923828125,-40142.19140625,-42802.2265625,-46649.453125
302920.4381264,No Event,-47879.984375,-37832.4296875,-37700.59765625,-19479.947265625,-27527.693359375,-40184.546875,-42829.36328125,-46682.1328125
302920.4421264,No Event,-47854.1015625,-37841.7734375,-37929.48046875,-19460.6796875,-27517.701171875,-40263.11328125,-42808.0390625,-46654.66015625
302920.4461264,No Event,-47820.05859375,-37835.58203125,-38310.80078125,-19447.068359375,-27491.349609375,-40234.83984375,-42774.890625,-46618.8984375
302920.45012640004,No Event,-47832.48828125,-37820.8046875,-38113.4140625,-19454.556640625,-27493.3828125,-40145.1875,-42787.921875,-46635.55078125
302920.45412640006,No Event,-47870.3046875,-37830.015625,-37709.78515625,-19468.99609375,-27521.703125,-40167.40234375,-42822.859375,-46675.1796875
302920.4581264001,No Event,-47867.19921875,-37850.7578125,-37849.4140625,-19462.15625,-27515.421875,-40256.65234375,-42811.68359375,-46671.5390625
302920.4621264001,No Event,-47825.26953125,-37847.4921875,-38281.3203125,-19442.44140625,-27477.625,-40252.09375,-42777.4609375,-46625.203125
302920.4661264001,No Event,-47830.25390625,-37839.0,-38201.79296875,-19440.228515625,-27467.58984375,-40173.4609375,-42784.61328125,-46637.5859375
302920.52521319996,No Event,-47861.7890625,-37829.6328125,-37752.25390625,-19449.34765625,-27495.484375,-40137.4296875,-42799.2109375,-46656.7421875
302920.5292132,No Event,-47852.55859375,-37831.51171875,-37771.7421875,-19431.779296875,-27484.30859375,-40218.87890625,-42795.23046875,-46649.1640625
302920.5332132,No Event,-47823.703125,-37847.0,-38222.01953125,-19423.599609375,-27460.7265625,-40257.61328125,-42780.14453125,-46631.50390625
302920.5372132,No Event,-47808.6171875,-37822.6171875,-38246.11328125,-19410.58984375,-27445.259765625,-40154.39453125,-42754.7734375,-46614.5390625
302920.5412132,No Event,-47841.60546875,-37810.09765625,-37797.78515625,-19429.74609375,-27481.513671875,-40114.47265625,-42786.359375,-46642.59375
302920.54521320004,No Event,-47863.0625,-37831.53515625,-37729.54296875,-19459.271484375,-27504.537109375,-40215.86328125,-42811.078125,-46665.14453125
302920.54921320005,No Event,-47835.953125,-37840.5859375,-38157.35546875,-19440.83203125,-27462.515625,-40255.42578125,-42785.08203125,-46635.953125
302920.55321320007,No Event,-47827.48046875,-37827.4453125,-38303.89453125,-19447.783203125,-27453.642578125,-40184.81640625,-42770.98046875,-46629.3359375
302920.5572132001,No Event,-47853.140625,-37806.6796875,-37871.3671875,-19462.69140625,-27496.958984375,-40119.16796875,-42793.0859375,-46649.6328125
302920.55838929996,No Event,-47824.3515625,-37804.9375,-38040.96875,-19464.099609375,-27490.03125,-40231.5546875,-42784.61328125,-46622.20703125
302920.5612132001,No Event,-47854.546875,-37799.28125,-37667.91796875,-19467.072265625,-27512.091796875,-40178.19921875,-42804.484375,-46651.109375
302920.5623893,No Event,-47818.33984375,-37809.921875,-38304.02734375,-19468.5703125,-27478.810546875,-40183.40625,-42780.0078125,-46616.484375
302920.5663893,No Event,-47843.3515625,-37790.33984375,-37939.26953125,-19471.923828125,-27492.244140625,-40109.87109375,-42791.09765625,-46643.375
302920.5703893,No Event,-47860.11328125,-37781.6015625,-37643.22265625,-19467.05078125,-27502.681640625,-40159.7578125,-42803.27734375,-46661.76953125
302920.5743893,No Event,-47834.74609375,-37796.1953125,-37954.35546875,-19463.765625,-27485.404296875,-40236.3125,-42789.1953125,-46638.7265625
302920.57838930003,No Event,-47806.73828125,-37792.75390625,-38299.17578125,-19461.685546875,-27456.01171875,-40197.84765625,-42762.796875,-46609.9140625
302920.58238930005,No Event,-47830.85546875,-37780.125,-38020.7421875,-19476.884765625,-27470.830078125,-40113.42578125,-42779.60546875,-46632.6015625
302920.58638930006,No Event,-47863.64453125,-37784.4375,-37660.921875,-19485.9609375,-27503.3515625,-40154.84375,-42811.703125,-46665.4140625
302920.5903893001,No Event,-47847.23828125,-37796.6640625,-37889.4921875,-19472.884765625,-27495.126953125,-40240.89453125,-42794.44921875,-46649.38671875
302920.5913918,No Event,-47818.4296875,-37768.90625,-38106.70703125,-19459.875,-27456.01171875,-40114.38671875,-42757.90234375,-46617.671875
302920.5943893001,No Event,-47812.484375,-37791.76953125,-38290.19140625,-19452.142578125,-27461.15234375,-40214.58984375,-42759.37890625,-46612.91015625
302920.5953918,No Event,-47847.62109375,-37759.7421875,-37679.1640625,-19482.517578125,-27493.96484375,-40129.13671875,-42789.375,-46652.80859375
302920.5993918,No Event,-47838.7890625,-37772.59375,-37802.65625,-19481.712890625,-27490.455078125,-40221.6953125,-42783.09375,-46647.5078125
302920.6033918,No Event,-47797.796875,-37768.50390625,-38241.9140625,-19460.814453125,-27456.48046875,-40212.3515625,-42746.86328125,-46601.53125
302920.60739180003,No Event,-47802.04296875,-37754.578125,-38173.44921875,-19465.708984375,-27462.404296875,-40116.44140625,-42742.99609375,-46606.2265625
302920.61139180005,No Event,-47840.37890625,-37757.2578125,-37731.30859375,-19492.888671875,-27502.7265625,-40110.00390625,-42782.6015625,-46643.73046875
302920.61539180006,No Event,-47842.09765625,-37768.48046875,-37745.48046875,-19492.107421875,-27516.361328125,-40201.7578125,-42789.5078125,-46649.58984375
302920.6193918001,No Event,-47810.9609375,-37776.28125,-38192.46875,-19482.943359375,-27488.98046875,-40228.24609375,-42759.3125,-46618.1171875
302920.6233918001,No Event,-47798.22265625,-37759.6953125,-38242.0234375,-19481.109375,-27476.9765625,-40135.953125,-42750.86328125,-46598.15625
302920.6248976,No Event,-47848.4453125,-37775.1171875,-37704.8671875,-19504.869140625,-27516.31640625,-40194.4921875,-42802.2734375,-46658.953125
302920.6273918001,No Event,-47832.82421875,-37755.5390625,-37795.59375,-19499.1484375,-27505.36328125,-40099.7890625,-42783.875,-46638.859375
302920.6288976,No Event,-47808.79296875,-37782.29296875,-38131.31640625,-19485.53515625,-27486.65625,-40239.93359375,-42769.48046875,-46615.8828125
302920.6328976,No Event,-47793.08203125,-37775.5,-38300.609375,-19471.54296875,-27466.650390625,-40163.08984375,-42749.09765625,-46600.79296875
302920.6368976,No Event,-47820.86328125,-37764.3671875,-37880.6640625,-19468.771484375,-27475.591796875,-40103.296875,-42777.8203125,-46626.1640625
302920.64089760004,No Event,-47826.16015625,-37764.8359375,-37671.1171875,-19452.5,-27484.845703125,-40167.11328125,-42775.2265625,-46632.109375
302920.64489760005,No Event,-47801.375,-37783.90234375,-38051.02734375,-19438.798828125,-27473.556640625,-40234.14453125,-42754.328125,-46610.875
302920.64889760007,No Event,-47791.62890625,-37795.4375,-38333.12890625,-19434.619140625,-27454.1328125,-40187.8984375,-42745.765625,-46599.8984375
302920.6528976001,No Event,-47826.96484375,-37796.93359375,-37987.1015625,-19448.54296875,-27475.63671875,-40125.3828125,-42782.82421875,-46638.81640625
302920.6568976001,No Event,-47846.4140625,-37800.77734375,-37690.4296875,-19448.6328125,-27501.384765625,-40177.5078125,-42799.94921875,-46658.21484375
302920.6601555,No Event,-47797.10546875,-37818.16796875,-38347.79296875,-19423.46484375,-27447.00390625,-40213.60546875,-42747.95703125,-46607.90234375
302920.6608976001,No Event,-47818.09375,-37810.58984375,-37986.69921875,-19431.64453125,-27476.3515625,-40245.58984375,-42773.125,-46627.50390625
302920.6641555,No Event,-47827.4140625,-37815.375,-38076.75390625,-19442.576171875,-27461.30859375,-40131.26171875,-42775.33984375,-46636.55859375
302920.6681555,No Event,-47856.29296875,-37823.66796875,-37705.0,-19450.3984375,-27500.357421875,-40168.296875,-42807.8828125,-46666.12890625
302920.67215550004,No Event,-47834.1640625,-37827.15234375,-37913.41015625,-19422.4140625,-27490.232421875,-40247.0859375,-42787.40625,-46645.1171875
302920.67615550006,No Event,-47794.37890625,-37815.8671875,-38315.8515625,-19411.41796875,-27450.556640625,-40220.421875,-42746.75,-46603.3203125
302920.6801555001,No Event,-47800.32421875,-37798.9453125,-38150.11328125,-19425.654296875,-27455.453125,-40124.15234375,-42757.5234375,-46613.109375
302920.6841555001,No Event,-47830.33984375,-37794.0078125,-37722.61328125,-19439.982421875,-27484.0859375,-40133.33984375,-42790.046875,-46646.79296875
302920.6881555001,No Event,-47831.63671875,-37814.76953125,-37834.41796875,-19438.552734375,-27484.599609375,-40230.703125,-42793.01953125,-46643.328125
302920.6921555001,No Event,-47798.9609375,-37818.68359375,-38284.71484375,-19430.505859375,-27469.490234375,-40243.01953125,-42766.12890625,-46609.69140625
302920.69352679997,No Event,-47816.1015625,-37772.59375,-37762.6015625,-19449.75,-27486.23046875,-40106.0703125,-42781.57421875,-46623.52734375
302920.69615550013,No Event,-47791.00390625,-37793.0234375,-38225.4375,-19435.177734375,-27461.77734375,-40141.1640625,-42758.6875,-46600.90625
302920.6975268,No Event,-47831.94921875,-37795.234375,-37766.828125,-19472.302734375,-27504.26953125,-40212.80078125,-42803.8828125,-46646.7734375
302920.7015268,No Event,-47796.30078125,-37800.0859375,-38219.3828125,-19468.771484375,-27486.25390625,-40241.38671875,-42771.24609375,-46616.44140625
302920.7055268,No Event,-47797.015625,-37791.12109375,-38298.21484375,-19467.005859375,-27480.1953125,-40163.46875,-42767.203125,-46618.67578125
302920.7095268,No Event,-47833.44921875,-37773.1953125,-37841.390625,-19481.490234375,-27500.1328125,-40113.828125,-42790.78125,-46643.91015625
302920.71352680004,No Event,-47837.78515625,-37775.38671875,-37717.18359375,-19475.947265625,-27500.916015625,-40186.515625,-42798.47265625,-46646.7734375
302920.71752680006,No Event,-47805.91015625,-37787.0546875,-38149.0859375,-19484.216796875,-27480.419921875,-40241.23046875,-42778.0859375,-46619.5703125
302920.7215268001,No Event,-47797.3515625,-37785.4453125,-38345.625,-19496.845703125,-27482.966796875,-40172.43359375,-42768.20703125,-46609.578125
302920.7255268001,No Event,-47817.87109375,-37760.45703125,-37918.3046875,-19498.56640625,-27493.361328125,-40101.109375,-42784.32421875,-46630.12109375
302920.7271364,No Event,-47800.703125,-37770.671875,-38050.89453125,-19468.7265625,-27489.962890625,-40231.21875,-42769.37109375,-46612.59765625
302920.7295268001,No Event,-47832.2421875,-37764.4140625,-37687.92578125,-19500.041015625,-27508.671875,-40168.4765625,-42796.953125,-46643.30859375
302920.7311364,No Event,-47781.97265625,-37768.99609375,-38339.5,-19467.38671875,-27462.896484375,-40179.765625,-42749.140625,-46593.91015625
302920.73513640004,No Event,-47806.91796875,-37758.890625,-37993.0703125,-19489.984375,-27474.474609375,-40102.31640625,-42771.6484375,-46618.67578125
302920.73913640005,No Event,-47831.078125,-37765.8203125,-37683.34375,-19501.248046875,-27499.75390625,-40153.09765625,-42799.859375,-46640.46875
302920.74313640007,No Event,-47816.9296875,-37786.2265625,-37977.22265625,-19492.77734375,-27485.671875,-40238.66015625,-42786.06640625,-46626.1640625
302920.7471364001,No Event,-47789.83984375,-37783.87890625,-38346.25,-19479.43359375,-27451.83203125,-40207.5703125,-42753.3203125,-46600.50390625
302920.7511364001,No Event,-47817.15234375,-37779.87890625,-38095.53125,-19493.939453125,-27474.40625,-40127.6640625,-42780.8828125,-46628.12890625
302920.7551364001,No Event,-47856.359375,-37790.47265625,-37718.90234375,-19511.26171875,-27514.037109375,-40164.765625,-42818.69921875,-46668.765625
302920.7591364001,No Event,-47842.8125,-37801.26953125,-37914.03515625,-19500.7578125,-27505.185546875,-40253.14453125,-42806.921875,-46653.09765625
302920.76313640014,No Event,-47795.16015625,-37790.140625,-38333.51171875,-19479.34375,-27462.6953125,-40231.15234375,-42766.62109375,-46603.74609375
302920.76464139996,No Event,-47807.72265625,-37776.4375,-38181.67578125,-19487.234375,-27453.6640625,-40134.5,-42774.69140625,-46616.1484375
302920.7686414,No Event,-47845.83203125,-37774.984375,-37741.8359375,-19507.91015625,-27490.634765625,-40132.69140625,-42803.56640625,-46653.90234375
302920.7726414,No Event,-47840.7578125,-37789.109375,-37834.77734375,-19517.96875,-27510.90625,-40229.875,-42810.453125,-46644.984375
302920.7766414,No Event,-47806.22265625,-37792.640625,-38290.4140625,-19501.115234375,-27482.07421875,-40239.64453125,-42772.07421875,-46609.01953125
302920.7806414,No Event,-47811.1171875,-37782.16015625,-38257.55859375,-19508.513671875,-27468.841796875,-40144.78515625,-42770.64453125,-46615.01171875
302920.78464140004,No Event,-47838.58984375,-37772.5703125,-37795.90625,-19531.982421875,-27492.9140625,-40119.83984375,-42803.0546875,-46648.44921875
302920.78864140005,No Event,-47828.9765625,-37776.4375,-37769.328125,-19510.904296875,-27500.177734375,-40213.3828125,-42803.74609375,-46646.68359375
302920.7912859,No Event,-47842.79296875,-37784.88671875,-37727.21875,-19512.693359375,-27522.685546875,-40194.1796875,-42808.5078125,-46650.078125
302920.79264140007,No Event,-47790.19921875,-37778.671875,-38219.44921875,-19489.984375,-27478.20703125,-40236.58203125,-42766.64453125,-46604.03515625
302920.7952859,No Event,-47806.44921875,-37793.3125,-38142.26953125,-19493.001953125,-27498.94921875,-40242.1015625,-42778.1328125,-46613.8046875
302920.7966414001,No Event,-47787.62890625,-37777.28515625,-38316.56640625,-19490.140625,-27474.787109375,-40156.5859375,-42762.62109375,-46601.46484375
302920.7992859,No Event,-47789.2578125,-37790.921875,-38353.828125,-19490.587890625,-27480.708984375,-40179.78515625,-42768.296875,-46600.63671875
302920.8006414001,No Event,-47832.265625,-37777.95703125,-37867.54296875,-19506.478515625,-27505.587890625,-40118.296875,-42800.75390625,-46643.7109375
302920.80328590004,No Event,-47823.703125,-37786.44921875,-37953.0625,-19508.490234375,-27505.609375,-40117.2890625,-42803.390625,-46635.125
302920.80728590005,No Event,-47849.18359375,-37799.28125,-37715.70703125,-19515.28515625,-27528.876953125,-40189.3984375,-42830.3671875,-46660.96484375
302920.81128590007,No Event,-47827.61328125,-37814.48046875,-38076.10546875,-19502.8125,-27503.642578125,-40258.64453125,-42809.53515625,-46641.6328125
302920.8152859001,No Event,-47801.41796875,-37808.625,-38387.37890625,-19485.021484375,-27472.751953125,-40206.7421875,-42782.46875,-46617.35546875
302920.8192859001,No Event,-47815.4765625,-37785.19921875,-38042.69140625,-19480.08203125,-27491.841796875,-40115.48046875,-42792.1015625,-46634.07421875
302920.8232859001,No Event,-47846.4140625,-37794.9453125,-37707.37109375,-19485.69140625,-27519.7578125,-40166.44140625,-42824.421875,-46666.91015625
302920.82728590013,No Event,-47821.734375,-37796.30859375,-37976.375,-19467.7890625,-27499.84375,-40239.109375,-42794.94140625,-46643.64453125
302920.8314106,No Event,-47783.203125,-37783.5234375,-38353.13671875,-19458.177734375,-27470.763671875,-40201.3125,-42754.6640625,-46606.5390625
302920.8354106,No Event,-47806.828125,-37775.20703125,-38117.79296875,-19471.521484375,-27490.208984375,-40114.65234375,-42778.19921875,-46633.25
302920.8394106,No Event,-47835.48046875,-37770.625,-37705.40234375,-19479.232421875,-27509.41015625,-40132.421875,-42809.0,-46659.19921875
302920.84341060003,No Event,-47829.76171875,-37791.79296875,-37887.390625,-19490.876953125,-27514.21484375,-40232.87109375,-42810.05078125,-46652.6953125
302920.84741060005,No Event,-47795.31640625,-37793.4921875,-38322.4453125,-19481.37890625,-27490.076171875,-40223.484375,-42777.9296875,-46612.171875
302920.85141060007,No Event,-47801.10546875,-37779.5234375,-38192.71484375,-19489.9609375,-27496.802734375,-40124.3984375,-42785.95703125,-46617.15625
302920.8554106001,No Event,-47840.82421875,-37778.0234375,-37745.81640625,-19505.62890625,-27527.08984375,-40125.16015625,-42813.91796875,-46654.8203125
302920.8594106001,No Event,-47839.05859375,-37793.6484375,-37817.18359375,-19506.27734375,-27520.33984375,-40220.80078125,-42816.109375,-46653.25390625
302920.8634106001,No Event,-47808.86328125,-37802.74609375,-38286.37109375,-19490.072265625,-27494.298828125,-40238.75,-42789.171875,-46619.16796875
302920.8668657,No Event,-47858.28125,-37801.5390625,-37828.5625,-19534.330078125,-27526.306640625,-40135.6640625,-42839.8671875,-46666.28515625
302920.8674106001,No Event,-47820.73046875,-37802.41015625,-38290.9296875,-19505.673828125,-27491.68359375,-40158.1953125,-42802.0703125,-46625.203125
302920.8708657,No Event,-47860.5390625,-37811.12890625,-37777.17578125,-19528.943359375,-27535.716796875,-40221.16015625,-42840.26953125,-46671.08984375
302920.8748657,No Event,-47835.83984375,-37827.5546875,-38230.22265625,-19503.998046875,-27528.162109375,-40262.9140625,-42814.38671875,-46647.5546875
302920.87886570004,No Event,-47833.44921875,-37823.64453125,-38357.08984375,-19496.3984375,-27524.2734375,-40191.1875,-42806.65234375,-46646.66015625
302920.88286570006,No Event,-47859.15234375,-37805.203125,-37900.06640625,-19512.55859375,-27533.68359375,-40130.72265625,-42829.71875,-46674.7109375
302920.8868657001,No Event,-47855.33203125,-37797.625,-37724.828125,-19503.55078125,-27529.50390625,-40193.51171875,-42828.578125,-46673.16796875
302920.8908657001,No Event,-47832.10546875,-37815.375,-38143.765625,-19499.4609375,-27516.830078125,-40255.15625,-42808.57421875,-46648.62890625
302920.8948657001,No Event,-47814.44921875,-37810.74609375,-38379.1953125,-19496.287109375,-27499.84375,-40197.109375,-42792.63671875,-46631.4375
302920.8988657001,No Event,-47844.0,-37796.44140625,-37974.5390625,-19513.2734375,-27518.619140625,-40121.984375,-42816.33203125,-46661.90234375
302920.9022223,No Event,-47837.62890625,-37813.83203125,-38059.43359375,-19505.00390625,-27515.4453125,-40254.015625,-42812.15234375,-46655.265625
302920.90286570013,No Event,-47872.05078125,-37806.94921875,-37709.00390625,-19524.919921875,-27539.740234375,-40186.91796875,-42843.77734375,-46693.15234375
302920.9062223,No Event,-47814.828125,-37814.703125,-38388.6953125,-19512.849609375,-27509.41015625,-40205.9609375,-42797.17578125,-46632.625
302920.91022230004,No Event,-47850.12109375,-37815.9765625,-38077.73828125,-19552.076171875,-27547.228515625,-40138.30078125,-42835.53125,-46672.65625
302920.91422230005,No Event,-47882.84765625,-37828.828125,-37736.31640625,-19576.126953125,-27570.765625,-40192.81640625,-42871.00390625,-46707.48046875
302920.91822230007,No Event,-47860.94140625,-37840.85546875,-37996.15625,-19564.236328125,-27565.490234375,-40278.04296875,-42859.76171875,-46690.26953125
302920.9222223001,No Event,-47832.82421875,-37837.97265625,-38396.921875,-19555.564453125,-27548.546875,-40250.77734375,-42825.31640625,-46648.671875
302920.9262223001,No Event,-47848.2890625,-37821.41015625,-38168.77734375,-19570.763671875,-27564.88671875,-40145.8359375,-42839.0625,-46661.94921875
302920.9276143,No Event,-47857.03125,-37823.44140625,-38245.9140625,-19565.779296875,-27554.60546875,-40166.44140625,-42838.1015625,-46678.30859375
302920.9302223001,No Event,-47893.015625,-37831.734375,-37761.37109375,-19603.10546875,-27609.3671875,-40175.96484375,-42884.70703125,-46710.49609375
302920.9316143,No Event,-47886.46484375,-37817.56640625,-37793.6484375,-19573.333984375,-27583.68359375,-40167.2265625,-42872.546875,-46714.54296875
302920.93422230013,No Event,-47861.03125,-37817.7421875,-37899.88671875,-19556.859375,-27561.7578125,-40245.0546875,-42849.61328125,-46678.3984375
302920.9356143,No Event,-47875.40234375,-37817.23046875,-37825.03125,-19550.6015625,-27556.951171875,-40257.0546875,-42851.84765625,-46702.09375
302920.93822230014,No Event,-47829.55859375,-37816.6484375,-38335.74609375,-19537.48046875,-27526.84375,-40239.15234375,-42814.296875,-46645.56640625
302920.93961430003,No Event,-47806.046875,-37781.84765625,-38251.8359375,-19515.44140625,-27515.265625,-40209.2890625,-42773.1484375,-46610.96484375
302920.94361430005,No Event,-47804.0546875,-37775.54296875,-38278.90625,-19521.142578125,-27518.39453125,-40132.15625,-42782.04296875,-46618.36328125
302920.94761430006,No Event,-47852.46875,-37785.9375,-37828.515625,-19538.822265625,-27546.37890625,-40120.12890625,-42830.27734375,-46673.7734375
302920.9516143001,No Event,-47852.3125,-37787.5703125,-37745.859375,-19531.400390625,-27545.88671875,-40195.5234375,-42824.2890625,-46671.42578125
302920.9556143001,No Event,-47807.9453125,-37789.19921875,-38192.87109375,-19514.302734375,-27518.328125,-40235.53125,-42787.16015625,-46629.5390625
302920.9596143001,No Event,-47813.0625,-37798.453125,-38346.62890625,-19530.57421875,-27522.775390625,-40175.29296875,-42798.046875,-46638.5703125
302920.9636143001,No Event,-47850.859375,-37791.6796875,-37909.05078125,-19549.86328125,-27546.447265625,-40132.109375,-42836.06640625,-46679.62890625
302920.9692431,No Event,-47863.890625,-37795.37109375,-37731.7109375,-19550.556640625,-27549.732421875,-40203.16796875,-42845.1875,-46689.08203125
302920.9732431,No Event,-47828.95703125,-37802.453125,-38135.765625,-19526.08203125,-27510.259765625,-40257.90625,-42816.30859375,-46653.72265625
302920.9772431,No Event,-47811.41015625,-37796.375,-38382.90625,-19520.494140625,-27483.146484375,-40196.39453125,-42796.66015625,-46633.44921875
302920.9812431,No Event,-47851.5078125,-37794.4765625,-38000.08984375,-19550.78125,-27536.8125,-40136.0,-42836.58203125,-46676.140625
302920.98524310003,No Event,-47865.859375,-37786.3828125,-37707.8828125,-19558.380859375,-27562.650390625,-40184.66015625,-42849.74609375,-46692.0546875
302920.98924310005,No Event,-47845.49609375,-37805.16015625,-38053.17578125,-19548.298828125,-27549.77734375,-40262.77734375,-42835.57421875,-46668.05078125
302920.99324310006,No Event,-47810.8515625,-37794.02734375,-38393.43359375,-19525.58984375,-27504.984375,-40216.30859375,-42798.11328125,-46631.39453125
302920.9972431001,No Event,-47825.0,-37768.45703125,-38069.51171875,-19534.59765625,-27508.962890625,-40109.78125,-42801.04296875,-46638.45703125
302921.0009461,No Event,-47805.0625,-37797.1796875,-38376.78125,-19521.388671875,-27507.822265625,-40219.640625,-42792.1015625,-46616.57421875
302921.0012431001,No Event,-47871.40234375,-37789.51171875,-37718.9921875,-19554.423828125,-27550.537109375,-40163.76171875,-42845.65625,-46682.51171875
302921.0049461,No Event,-47831.03515625,-37799.55078125,-38182.16796875,-19531.802734375,-27518.216796875,-40136.24609375,-42812.171875,-46643.30859375
302921.0052431001,No Event,-47841.49609375,-37793.26953125,-37957.890625,-19530.931640625,-27532.07421875,-40241.12109375,-42822.23046875,-46659.4453125
302921.0089461,No Event,-47839.90625,-37774.78515625,-37729.5,-19516.849609375,-27521.166015625,-40136.87109375,-42828.0,-46659.3125
302921.01294610003,No Event,-47817.734375,-37780.796875,-37871.20703125,-19506.390625,-27512.6953125,-40220.98046875,-42809.89453125,-46641.296875
302921.01694610005,No Event,-47790.80078125,-37796.7109375,-38332.7265625,-19492.486328125,-27479.63671875,-40228.24609375,-42779.6953125,-46610.2265625
302921.02094610006,No Event,-47807.609375,-37793.1328125,-38245.265625,-19497.806640625,-27488.64453125,-40138.66015625,-42791.20703125,-46619.79296875
302921.0249461001,No Event,-47852.89453125,-37799.5703125,-37798.4765625,-19523.421875,-27539.62890625,-40145.67578125,-42834.16796875,-46666.80078125
302921.0289461001,No Event,-47842.4765625,-37802.56640625,-37821.5,-19510.412109375,-27531.962890625,-40219.640625,-42819.55078125,-46647.80078125
302921.0329461001,No Event,-47803.69921875,-37809.02734375,-38288.26953125,-19485.84765625,-27496.9140625,-40245.09765625,-42779.6953125,-46608.6171875
302921.0369461001,No Event,-47793.52734375,-37785.48828125,-38308.2734375,-19482.919921875,-27473.982421875,-40145.609375,-42768.07421875,-46599.65625
302921.0418446,No Event,-47842.25390625,-37786.83203125,-37852.03125,-19514.34765625,-27524.609375,-40122.85546875,-42819.39453125,-46648.29296875
302921.0458446,No Event,-47848.89453125,-37800.421875,-37777.6875,-19511.732421875,-27547.251953125,-40216.0625,-42830.2109375,-46657.61328125
302921.0498446,No Event,-47808.16796875,-37798.453125,-38209.61328125,-19480.349609375,-27512.0703125,-40247.01953125,-42782.6015625,-46615.48046875
302921.05384460004,No Event,-47794.46875,-37784.41796875,-38354.9453125,-19467.7890625,-27483.458984375,-40165.0546875,-42761.03125,-46596.34765625
302921.05784460006,No Event,-47827.12109375,-37773.421875,-37916.31640625,-19485.46875,-27508.939453125,-40111.58984375,-42794.3359375,-46634.65625
302921.0618446001,No Event,-47841.5859375,-37785.51171875,-37721.36328125,-19502.43359375,-27533.7734375,-40188.5703125,-42818.74609375,-46655.33203125
302921.0658446001,No Event,-47816.328125,-37800.0390625,-38124.96875,-19493.001953125,-27507.599609375,-40255.515625,-42792.34765625,-46628.80078125
302921.0698446001,No Event,-47798.46875,-37793.53515625,-38387.265625,-19484.91015625,-27490.1640625,-40192.4609375,-42769.4375,-46610.98828125
302921.0738446001,No Event,-47833.0703125,-37786.16015625,-38008.0,-19507.775390625,-27515.35546875,-40123.4140625,-42805.15625,-46648.58203125
302921.0776645,No Event,-47831.52734375,-37795.7265625,-38033.125,-19496.80078125,-27519.892578125,-40240.5390625,-42793.66796875,-46631.99609375
302921.07784460013,No Event,-47860.47265625,-37795.48046875,-37711.34765625,-19515.107421875,-27528.7890625,-40185.75390625,-42828.55859375,-46674.62109375
302921.0816645,No Event,-47788.07421875,-37779.9453125,-38385.703125,-19486.787109375,-27503.978515625,-40195.54296875,-42761.58984375,-46597.44140625
302921.0856645,No Event,-47803.765625,-37762.6015625,-38083.796875,-19500.466796875,-27517.12109375,-40102.3828125,-42779.13671875,-46613.421875
302921.08966450003,No Event,-47836.77734375,-37766.2890625,-37708.93359375,-19515.5546875,-27543.09375,-40141.8125,-42813.58203125,-46644.11328125
302921.09366450005,No Event,-47820.10546875,-37774.29296875,-37942.5546875,-19507.91015625,-27532.185546875,-40226.79296875,-42801.4453125,-46629.71875
302921.09766450006,No Event,-47793.52734375,-37781.0625,-38366.27734375,-19501.00390625,-27507.083984375,-40212.7109375,-42773.4375,-46600.90625
302921.10162539996,No Event,-47801.3515625,-37778.44921875,-38261.46875,-19500.935546875,-27497.5859375,-40129.6953125,-42774.7109375,-46601.8671875
302921.1016645001,No Event,-47808.14453125,-37767.80859375,-38174.8125,-19512.291015625,-27516.919921875,-40120.0625,-42787.40625,-46617.0234375
302921.10562539997,No Event,-47831.19140625,-37759.5859375,-37783.14453125,-19510.033203125,-27523.916015625,-40108.28125,-42807.2578125,-46635.328125
302921.1056645001,No Event,-47837.78515625,-37763.5625,-37739.15625,-19521.857421875,-27538.51171875,-40131.015625,-42818.6796875,-46644.55859375
302921.1096254,No Event,-47847.23828125,-37788.23828125,-37813.71875,-19526.126953125,-27540.857421875,-40219.52734375,-42827.171875,-46652.47265625
302921.1096645001,No Event,-47826.36328125,-37772.2578125,-37863.3203125,-19500.376953125,-27515.869140625,-40210.38671875,-42793.35546875,-46625.2265625
302921.1136254,No Event,-47818.02734375,-37801.359375,-38282.83984375,-19512.71484375,-27516.986328125,-40256.8984375,-42798.91796875,-46623.390625
302921.1136645001,No Event,-47794.265625,-37786.875,-38332.21484375,-19500.48828125,-27499.171875,-40223.3515625,-42770.578125,-46595.65234375
302921.1176254,No Event,-47792.92578125,-37770.8046875,-38319.1171875,-19494.41015625,-27498.234375,-40151.46484375,-42773.39453125,-46600.66015625
302921.12162540003,No Event,-47822.5859375,-37756.34375,-37844.2734375,-19497.224609375,-27518.529296875,-40100.52734375,-42797.80078125,-46626.9921875
302921.12562540005,No Event,-47841.31640625,-37777.375,-37756.2109375,-19507.126953125,-27517.814453125,-40200.23828125,-42813.8515625,-46651.51171875
302921.12962540006,No Event,-47797.23828125,-37773.0625,-38185.8984375,-19486.966796875,-27494.58984375,-40231.15234375,-42771.76171875,-46604.7734375
302921.1336254001,No Event,-47782.6875,-37761.9765625,-38352.7109375,-19484.283203125,-27488.66796875,-40155.9140625,-42756.78515625,-46592.5234375
302921.1376254001,No Event,-47830.8125,-37771.296875,-37932.20703125,-19513.765625,-27525.099609375,-40113.35546875,-42804.171875,-46642.48046875
302921.14389189996,No Event,-47841.60546875,-37772.9296875,-37720.58203125,-19515.28515625,-27532.56640625,-40180.8359375,-42815.63671875,-46650.34765625
302921.1478919,No Event,-47800.234375,-37769.75390625,-38104.96484375,-19496.62109375,-27501.85546875,-40232.08984375,-42780.390625,-46608.23828125
302921.1518919,No Event,-47780.69921875,-37766.78125,-38380.515625,-19479.3671875,-27475.5234375,-40181.39453125,-42762.5546875,-46592.14453125
302921.1558919,No Event,-47813.3984375,-37760.12109375,-38017.45703125,-19492.107421875,-27489.60546875,-40116.2421875,-42791.96875,-46628.265625
302921.1598919,No Event,-47855.82421875,-37784.125,-37725.36328125,-19517.7890625,-27543.80859375,-40182.9375,-42828.73828125,-46668.6328125
302921.16389190004,No Event,-47833.71484375,-37794.20703125,-38034.4453125,-19514.525390625,-27527.291015625,-40261.03515625,-42804.6640625,-46646.7734375
302921.16789190006,No Event,-47777.6796875,-37759.5859375,-38376.203125,-19483.076171875,-27472.88671875,-40199.41015625,-42750.328125,-46588.5
302921.17189190007,No Event,-47802.42578125,-37747.984375,-38086.14453125,-19495.4375,-27480.91015625,-40107.8359375,-42771.3828125,-46613.37890625
302921.1758919001,No Event,-47837.89453125,-37760.4765625,-37717.31640625,-19517.005859375,-27522.955078125,-40154.328125,-42812.62109375,-46652.828125
302921.1764226,No Event,-47783.6484375,-37763.4296875,-38354.23046875,-19485.3125,-27479.904296875,-40211.37109375,-42754.3515625,-46592.63671875
302921.1798919001,No Event,-47817.17578125,-37770.91796875,-37940.56640625,-19506.232421875,-27523.759765625,-40236.87109375,-42795.453125,-46629.80859375
302921.1804226,No Event,-47810.58203125,-37757.23828125,-38185.7890625,-19490.720703125,-27485.91796875,-40125.89453125,-42769.05859375,-46615.92578125
302921.1844226,No Event,-47840.1328125,-37758.53515625,-37743.7578125,-19502.1875,-27514.7734375,-40133.94140625,-42803.56640625,-46653.1640625
302921.18842260004,No Event,-47826.296875,-37767.38671875,-37855.7421875,-19509.564453125,-27507.732421875,-40229.05078125,-42801.890625,-46656.0703125
302921.19242260006,No Event,-47808.48046875,-37796.10546875,-38340.4375,-19524.60546875,-27505.23046875,-40250.70703125,-42789.26171875,-46620.6875
302921.1964226001,No Event,-47794.17578125,-37763.8984375,-38265.71875,-19509.1171875,-27495.88671875,-40135.77734375,-42769.75,-46601.890625
302921.2004226001,No Event,-47825.40234375,-37746.8671875,-37787.34375,-19509.36328125,-27507.93359375,-40102.0234375,-42788.7265625,-46633.16015625
302921.2044226001,No Event,-47838.9453125,-37775.921875,-37804.69140625,-19512.3125,-27510.125,-40211.21484375,-42805.625,-46645.9453125
302921.2084226001,No Event,-47805.77734375,-37787.27734375,-38270.61328125,-19492.197265625,-27493.47265625,-40245.9921875,-42775.94140625,-46613.9609375
302921.21058039996,No Event,-47836.5546875,-37766.35546875,-37871.8359375,-19500.0859375,-27505.474609375,-40117.046875,-42797.04296875,-46643.484375
302921.21242260013,No Event,-47793.26171875,-37766.4453125,-38326.9609375,-19479.009765625,-27473.580078125,-40151.78125,-42758.91015625,-46605.0859375
302921.2145804,No Event,-47848.22265625,-37782.47265625,-37758.01953125,-19513.1171875,-27527.669921875,-40200.55078125,-42813.1796875,-46651.64453125
302921.2185804,No Event,-47814.25,-37793.3125,-38196.80859375,-19499.974609375,-27504.6484375,-40258.6640625,-42788.5703125,-46617.19921875
302921.2225804,No Event,-47777.61328125,-37754.80078125,-38358.69921875,-19469.509765625,-27467.857421875,-40153.58984375,-42741.9453125,-46583.40625
302921.2265804,No Event,-47819.03125,-37749.16796875,-37927.71484375,-19481.802734375,-27495.3046875,-40091.96484375,-42777.57421875,-46629.89453125
302921.23058040004,No Event,-47844.53515625,-37770.671875,-37719.84375,-19508.78125,-27526.306640625,-40172.5,-42810.609375,-46653.69921875
302921.23458040005,No Event,-47818.7421875,-37787.14453125,-38110.57421875,-19505.47265625,-27508.60546875,-40240.40625,-42789.1953125,-46624.17578125
302921.23858040007,No Event,-47788.51953125,-37772.45703125,-38394.640625,-19481.7578125,-27474.00390625,-40184.76953125,-42756.4296875,-46599.96875
302921.2425804001,No Event,-47791.11328125,-37729.7890625,-38003.328125,-19477.109375,-27480.486328125,-40080.92578125,-42758.88671875,-46603.74609375
302921.24319169996,No Event,-47827.61328125,-37781.109375,-38019.01953125,-19510.63671875,-27504.849609375,-40239.66796875,-42798.6953125,-46634.546875
302921.2465804001,No Event,-47831.66015625,-37749.390625,-37694.80859375,-19506.322265625,-27509.498046875,-40144.3125,-42797.9140625,-46642.546875
302921.2471917,No Event,-47809.30859375,-37792.1953125,-38408.0546875,-19514.056640625,-27505.185546875,-40215.078125,-42781.39453125,-46617.4921875
302921.2511917,No Event,-47828.0390625,-37774.06640625,-38129.9296875,-19514.32421875,-27502.79296875,-40119.50390625,-42787.51953125,-46635.9296875
302921.2551917,No Event,-47857.90234375,-37771.7421875,-37726.2578125,-19515.888671875,-27522.91015625,-40150.66015625,-42815.28125,-46669.03515625
302921.2591917,No Event,-47846.0546875,-37789.58203125,-37940.36328125,-19517.140625,-27529.927734375,-40243.0625,-42811.14453125,-46659.9609375
302921.26319170004,No Event,-47811.72265625,-37791.01171875,-38374.83984375,-19501.361328125,-27494.478515625,-40232.9609375,-42779.78515625,-46623.546875
302921.26719170006,No Event,-47813.265625,-37766.109375,-38202.3515625,-19497.359375,-27485.806640625,-40124.12890625,-42776.90234375,-46613.19921875
302921.27119170007,No Event,-47850.63671875,-37763.78515625,-37753.28125,-19518.1015625,-27519.19921875,-40127.171875,-42809.73828125,-46656.47265625
302921.2751917001,No Event,-47854.1015625,-37785.53515625,-37858.40234375,-19524.2265625,-27522.84375,-40230.2109375,-42822.23046875,-46665.19140625
302921.2791917001,No Event,-47819.79296875,-37792.12890625,-38327.36328125,-19499.796875,-27492.66796875,-40245.9921875,-42788.703125,-46628.2421875
302921.41125869995,No Event,-47823.09765625,-37782.80859375,-38291.9140625,-19513.228515625,-27495.931640625,-40155.37890625,-42788.99609375,-46629.08984375
302921.41525869997,No Event,-47872.2734375,-37784.9765625,-37830.73046875,-19534.619140625,-27534.623046875,-40146.7734375,-42829.49609375,-46680.1875
302921.4192587,No Event,-47862.1015625,-37778.42578125,-37796.41796875,-19522.080078125,-27531.001953125,-40228.984375,-42826.1875,-46677.37109375
302921.4232587,No Event,-47812.23828125,-37775.69921875,-38252.3515625,-19503.88671875,-27500.111328125,-40238.3046875,-42780.63671875,-46624.0625
302921.4272587,No Event,-47804.48046875,-37766.1796875,-38334.3359375,-19497.560546875,-27489.62890625,-40155.53515625,-42773.01171875,-46617.53515625
302921.43125870003,No Event,-47847.328125,-37766.7578125,-37879.97265625,-19520.0234375,-27518.349609375,-40122.36328125,-42815.59375,-46664.18359375
302921.43525870005,No Event,-47853.98828125,-37771.69921875,-37745.859375,-19521.701171875,-27518.775390625,-40191.03125,-42817.875,-46663.06640625
302921.43925870006,No Event,-47814.00390625,-37777.0859375,-38173.4921875,-19505.40625,-27500.37890625,-40238.66015625,-42785.375,-46620.10546875
302921.4432587001,No Event,-47798.98046875,-37770.42578125,-38374.16796875,-19495.728515625,-27491.28125,-40172.140625,-42769.55078125,-46608.34765625
302921.44415239996,No Event,-47848.53515625,-37765.484375,-37716.87109375,-19521.8125,-27535.470703125,-40172.4765625,-42813.13671875,-46666.62109375
302921.4472587001,No Event,-47834.0078125,-37761.7734375,-37957.8203125,-19501.248046875,-27515.712890625,-40114.65234375,-42797.578125,-46655.37890625
302921.4481524,No Event,-47819.3671875,-37777.33203125,-38091.84375,-19517.07421875,-27511.755859375,-40227.77734375,-42791.921875,-46624.93359375
302921.4521524,No Event,-47800.12109375,-37776.50390625,-38401.234375,-19489.537109375,-27478.921875,-40182.06640625,-42767.6953125,-46606.65234375
302921.4561524,No Event,-47821.19921875,-37760.3203125,-38047.80859375,-19491.32421875,-27496.802734375,-40101.84765625,-42785.46484375,-46628.734375
302921.4601524,No Event,-47839.6171875,-37760.27734375,-37711.1484375,-19501.607421875,-27515.7578125,-40146.83984375,-42811.0546875,-46650.90625
302921.46415240003,No Event,-47816.73046875,-37773.46484375,-38005.07421875,-19489.423828125,-27500.982421875,-40229.18359375,-42797.7578125,-46631.41796875
302921.46815240005,No Event,-47789.01171875,-37774.89453125,-38392.4296875,-19469.3984375,-27474.31640625,-40201.9609375,-42768.3203125,-46605.19921875
302921.47215240006,No Event,-47811.87890625,-37763.40625,-38133.5078125,-19477.01953125,-27485.08984375,-40110.1171875,-42781.10546875,-46629.60546875
302921.4761524001,No Event,-47848.15625,-37769.73046875,-37730.7265625,-19493.26953125,-27514.3046875,-40140.0234375,-42819.125,-46664.2734375
302921.4766695,No Event,-47802.24609375,-37788.91015625,-38372.828125,-19476.7734375,-27464.125,-40227.86328125,-42781.0390625,-46617.58203125
302921.4801524001,No Event,-47839.59375,-37790.0703125,-37927.6484375,-19494.744140625,-27507.53125,-40236.91796875,-42818.3203125,-46656.3828125
302921.4806695,No Event,-47815.9453125,-37777.6015625,-38231.02734375,-19484.328125,-27482.296875,-40130.234375,-42787.51953125,-46628.62109375
302921.48466950003,No Event,-47838.56640625,-37767.1171875,-37772.94921875,-19490.095703125,-27514.349609375,-40126.140625,-42815.4375,-46654.55078125
302921.48866950005,No Event,-47839.55078125,-37786.875,-37859.09375,-19490.990234375,-27513.791015625,-40227.953125,-42823.19140625,-46656.33984375
302921.49266950006,No Event,-47802.19921875,-37790.36328125,-38328.3671875,-19472.326171875,-27480.28515625,-40242.28125,-42785.7109375,-46616.70703125
302921.4966695001,No Event,-47793.8203125,-37766.53515625,-38298.6171875,-19467.921875,-27462.3359375,-40136.6015625,-42772.96875,-46603.296875
302921.5006695001,No Event,-47840.04296875,-37768.12109375,-37832.13671875,-19496.689453125,-27511.33203125,-40112.9765625,-42821.0703125,-46648.3359375
302921.5046695001,No Event,-47841.02734375,-37776.125,-37798.5,-19497.224609375,-27518.373046875,-40200.39453125,-42821.1796875,-46650.68359375
302921.5086695001,No Event,-47803.85546875,-37781.22265625,-38256.88671875,-19492.0390625,-27490.5,-40236.8515625,-42786.76171875,-46615.0546875
302921.51266950014,No Event,-47789.796875,-37767.16015625,-38353.55859375,-19489.849609375,-27483.056640625,-40154.59765625,-42778.04296875,-46607.859375
302921.5182615,No Event,-47828.0625,-37754.82421875,-37892.15234375,-19496.599609375,-27503.1953125,-40104.70703125,-42802.29296875,-46649.41015625
302921.5222615,No Event,-47844.109375,-37764.9921875,-37743.84765625,-19506.478515625,-27510.259765625,-40183.00390625,-42814.5859375,-46656.94140625
302921.5262615,No Event,-47807.49609375,-37773.421875,-38173.3828125,-19494.095703125,-27477.044921875,-40237.72265625,-42787.20703125,-46620.53125
302921.53026150004,No Event,-47783.15625,-37757.328125,-38385.8359375,-19481.35546875,-27449.23828125,-40168.20703125,-42765.99609375,-46600.50390625
302921.53426150006,No Event,-47814.58203125,-37743.15625,-37971.41015625,-19494.1640625,-27490.8359375,-40096.16796875,-42790.37890625,-46633.98828125
302921.53826150007,No Event,-47837.26953125,-37751.359375,-37715.52734375,-19496.64453125,-27523.6484375,-40161.32421875,-42812.26171875,-46652.91796875
302921.5422615001,No Event,-47820.39453125,-37771.23046875,-38079.28125,-19493.73828125,-27499.88671875,-40236.76171875,-42791.4765625,-46635.59765625
302921.5462615001,No Event,-47801.375,-37769.80078125,-38402.3984375,-19482.875,-27462.158203125,-40194.203125,-42765.30078125,-46615.66015625
302921.5502615001,No Event,-47818.31640625,-37746.88671875,-38052.14453125,-19478.650390625,-27480.375,-40095.56640625,-42779.31640625,-46628.109375
302921.55083579995,No Event,-47819.65625,-37759.515625,-37984.17578125,-19494.54296875,-27496.19921875,-40219.640625,-42788.76953125,-46629.42578125
302921.55426150013,No Event,-47840.78125,-37746.328125,-37704.33203125,-19494.611328125,-27508.203125,-40138.078125,-42805.15625,-46650.4140625
302921.55483579997,No Event,-47790.04296875,-37761.91015625,-38386.9765625,-19482.49609375,-27466.248046875,-40200.4609375,-42762.0390625,-46600.34765625
302921.5588358,No Event,-47810.9609375,-37754.21875,-38151.38671875,-19501.361328125,-27485.134765625,-40112.75390625,-42784.30078125,-46623.2578125
302921.5628358,No Event,-47838.34375,-37750.77734375,-37732.515625,-19516.001953125,-27509.455078125,-40127.73046875,-42816.12890625,-46649.69921875
302921.5668358,No Event,-47827.83984375,-37765.9765625,-37909.921875,-19511.865234375,-27507.0625,-40214.69921875,-42806.296875,-46639.9765625
302921.5708358,No Event,-47791.65234375,-37768.546875,-38363.05859375,-19497.470703125,-27477.9375,-40213.671875,-42773.7734375,-46603.765625
302921.57483580004,No Event,-47811.1875,-37763.80859375,-38243.69921875,-19515.912109375,-27492.66796875,-40126.5,-42789.44140625,-46623.52734375
302921.57883580006,No Event,-47840.30859375,-37754.17578125,-37783.92578125,-19527.736328125,-27518.505859375,-40123.2578125,-42821.60546875,-46652.5390625
302921.5828358001,No Event,-47830.05078125,-37760.79296875,-37843.71484375,-19518.572265625,-27513.634765625,-40211.7734375,-42820.6015625,-46642.30078125
302921.58478589996,No Event,-47785.9296875,-37742.8203125,-38299.66796875,-19487.435546875,-27462.939453125,-40111.6796875,-42763.1328125,-46589.88671875
302921.5868358001,No Event,-47788.0078125,-37758.46484375,-38304.453125,-19490.2734375,-27479.435546875,-40210.921875,-42765.34765625,-46595.18359375
302921.5887859,No Event,-47836.28515625,-37750.21875,-37835.89453125,-19521.23046875,-27493.361328125,-40098.89453125,-42815.68359375,-46643.21875
302921.5927859,No Event,-47846.8359375,-37766.55859375,-37789.40234375,-19531.513671875,-27527.71484375,-40189.80078125,-42829.1171875,-46653.87890625
302921.5967859,No Event,-47808.4140625,-37771.85546875,-38251.30078125,-19509.318359375,-27498.568359375,-40228.9140625,-42789.41796875,-46616.21875
302921.6007859,No Event,-47790.0625,-37754.64453125,-38364.95703125,-19500.109375,-27471.5234375,-40142.2578125,-42770.375,-46599.33984375
302921.60478590004,No Event,-47834.05078125,-37752.9453125,-37912.13671875,-19518.572265625,-27512.314453125,-40096.99609375,-42809.71484375,-46643.75390625
302921.60878590005,No Event,-47851.3515625,-37766.89453125,-37745.8828125,-19515.912109375,-27529.99609375,-40178.46875,-42829.71875,-46663.04296875
302921.61278590007,No Event,-47814.6953125,-37776.4609375,-38170.2734375,-19502.388671875,-27506.548828125,-40236.0234375,-42798.58203125,-46624.8671875
302921.6167859001,No Event,-47781.078125,-37756.41015625,-38401.3046875,-19505.5859375,-27487.75,-40163.984375,-42770.98046875,-46591.0703125
302921.6198059,No Event,-47843.7734375,-37760.8125,-37727.12890625,-19524.94140625,-27533.19140625,-40160.02734375,-42832.671875,-46657.72265625
302921.6207859001,No Event,-47817.51171875,-37747.24609375,-37992.421875,-19516.26953125,-27506.32421875,-40093.21875,-42806.0703125,-46632.9375
302921.6238059,No Event,-47812.1484375,-37772.2578125,-38084.84765625,-19510.30078125,-27510.34765625,-40230.79296875,-42803.5,-46623.234375
302921.6278059,No Event,-47781.50390625,-37766.87109375,-38418.19921875,-19488.017578125,-27477.9609375,-40183.5859375,-42771.984375,-46590.24609375
302921.6318059,No Event,-47806.8515625,-37756.8125,-38093.67578125,-19499.70703125,-27493.361328125,-40104.99609375,-42801.37890625,-46622.921875
302921.63580590003,No Event,-47843.57421875,-37771.07421875,-37742.44140625,-19516.939453125,-27517.12109375,-40161.1015625,-42837.5859375,-46664.5859375
302921.63980590005,No Event,-47820.23828125,-37779.72265625,-38004.203125,-19498.947265625,-27502.81640625,-40233.5859375,-42814.453125,-46637.96484375
302921.64380590006,No Event,-47785.81640625,-37775.09765625,-38405.01171875,-19474.76171875,-27469.9140625,-40203.48046875,-42773.66015625,-46602.4921875
302921.6478059001,No Event,-47808.28125,-37765.9765625,-38179.328125,-19487.078125,-27485.515625,-40118.6328125,-42795.4765625,-46626.43359375
302921.6518059001,No Event,-47848.828125,-37770.37890625,-37758.30859375,-19504.087890625,-27524.8984375,-40145.765625,-42835.48828125,-46668.67578125
302921.6538768,No Event,-47783.87109375,-37767.51953125,-38359.81640625,-19472.7734375,-27476.373046875,-40210.41015625,-42766.12890625,-46592.81640625
302921.6558059001,No Event,-47828.3984375,-37773.28515625,-37913.54296875,-19498.767578125,-27514.751953125,-40217.47265625,-42808.8671875,-46638.078125
302921.6578768,No Event,-47794.17578125,-37755.4921875,-38246.91796875,-19470.60546875,-27478.720703125,-40111.61328125,-42774.4453125,-46601.3515625
302921.6618768,No Event,-47842.72265625,-37762.46875,-37792.640625,-19509.765625,-27516.94140625,-40115.8828125,-42819.55078125,-46649.51953125
302921.6658768,No Event,-47841.80859375,-37772.19140625,-37840.80859375,-19514.90625,-27518.595703125,-40204.796875,-42818.140625,-46647.28515625
302921.66987680004,No Event,-47801.39453125,-37772.19140625,-38306.44140625,-19494.833984375,-27481.380859375,-40223.171875,-42779.98828125,-46608.57421875
302921.67387680005,No Event,-47801.375,-37761.91015625,-38323.36328125,-19499.908203125,-27481.873046875,-40139.62109375,-42779.33984375,-46611.61328125
302921.67787680007,No Event,-47833.76171875,-37750.93359375,-37850.0859375,-19517.521484375,-27508.046875,-40107.65625,-42813.4921875,-46644.671875
302921.6818768001,No Event,-47845.1171875,-37763.78515625,-37782.0703125,-19523.66796875,-27517.27734375,-40191.34375,-42823.9765625,-46653.5
302921.6857959,No Event,-47833.4921875,-37754.53125,-37918.70703125,-19520.359375,-27529.19140625,-40099.8125,-42806.0703125,-46641.65234375
302921.6858768001,No Event,-47809.44140625,-37769.1953125,-38231.4296875,-19500.7578125,-27489.404296875,-40229.875,-42783.0703125,-46616.44140625
302921.6897959,No Event,-47841.49609375,-37762.9609375,-37740.6953125,-19527.2890625,-27545.552734375,-40179.51953125,-42824.64453125,-46655.890625
302921.6898768001,No Event,-47792.2109375,-37755.5390625,-38365.7421875,-19491.8828125,-27489.44921875,-40150.70703125,-42763.71484375,-46600.4609375
302921.69379590004,No Event,-47804.97265625,-37770.24609375,-38152.171875,-19509.318359375,-27516.6953125,-40235.17578125,-42791.765625,-46619.34765625
302921.69779590005,No Event,-47790.0859375,-37767.00390625,-38398.93359375,-19504.220703125,-27490.8359375,-40174.95703125,-42775.29296875,-46602.875
302921.70179590007,No Event,-47819.0078125,-37751.13671875,-38000.11328125,-19508.8046875,-27504.537109375,-40096.7734375,-42789.64453125,-46633.60546875
302921.7057959001,No Event,-47843.8203125,-37761.86328125,-37719.12890625,-19513.498046875,-27529.548828125,-40159.66796875,-42817.60546875,-46658.86328125
302921.7097959001,No Event,-47813.421875,-37768.8828125,-38057.109375,-19494.833984375,-27514.05859375,-40232.0,-42789.41796875,-46626.34375
302921.7137959001,No Event,-47787.71484375,-37763.00390625,-38393.2109375,-19494.767578125,-27486.052734375,-40185.6875,-42758.26171875,-46598.8046875
302921.7177959001,No Event,-47812.6171875,-37753.234375,-38084.30859375,-19510.658203125,-27500.53515625,-40104.21484375,-42779.1171875,-46622.4296875
302921.72179590014,No Event,-47838.1875,-37753.68359375,-37716.35546875,-19512.0,-27515.533203125,-40137.69921875,-42804.1953125,-46641.85546875
302921.7285406,No Event,-47832.15234375,-37779.25390625,-37974.2734375,-19513.810546875,-27510.482421875,-40236.828125,-42804.57421875,-46639.46484375
302921.7325406,No Event,-47788.05078125,-37766.87109375,-38386.39453125,-19483.859375,-27476.73046875,-40207.61328125,-42760.49609375,-46592.14453125
302921.7365406,No Event,-47794.04296875,-37742.39453125,-38166.98828125,-19492.46484375,-27478.20703125,-40098.0234375,-42766.7109375,-46597.30859375
302921.74054060003,No Event,-47834.65625,-37750.1953125,-37742.21875,-19519.599609375,-27510.75,-40124.51171875,-42809.6484375,-46641.140625
302921.74454060005,No Event,-47829.1328125,-37767.36328125,-37892.0390625,-19516.447265625,-27514.70703125,-40220.421875,-42805.84765625,-46637.5390625
302921.74854060006,No Event,-47799.25,-37772.59375,-38353.1796875,-19504.4453125,-27493.0703125,-40225.5390625,-42775.515625,-46607.5
302921.7525406001,No Event,-47808.52734375,-37759.0703125,-38258.02734375,-19512.603515625,-27503.62109375,-40136.40234375,-42783.2265625,-46617.73828125
302921.7565406001,No Event,-47841.09375,-37754.265625,-37796.44140625,-19520.0234375,-27529.4375,-40130.43359375,-42820.95703125,-46652.31640625
302921.7605406001,No Event,-47837.62890625,-37765.53125,-37832.16015625,-19520.828125,-27520.71875,-40219.1484375,-42821.94140625,-46649.58984375
302921.7645406001,No Event,-47803.65234375,-37777.98046875,-38306.44140625,-19511.865234375,-27505.85546875,-40252.0703125,-42792.81640625,-46620.75390625
302921.76591849996,No Event,-47795.49609375,-37759.515625,-38334.3828125,-19505.7421875,-27505.609375,-40151.15234375,-42779.71875,-46608.8203125
302921.7699185,No Event,-47838.58984375,-37755.24609375,-37866.73828125,-19526.86328125,-27540.255859375,-40115.2109375,-42824.3125,-46649.96875
302921.7739185,No Event,-47844.82421875,-37765.70703125,-37789.06640625,-19539.42578125,-27550.111328125,-40208.95703125,-42836.08984375,-46658.484375
302921.7779185,No Event,-47807.4296875,-37773.17578125,-38240.63671875,-19520.76171875,-27524.072265625,-40250.8203125,-42800.19140625,-46622.69921875
302921.7819185,No Event,-47797.7734375,-37765.640625,-38390.55078125,-19513.720703125,-27505.474609375,-40175.00390625,-42785.93359375,-46612.68359375
302921.78591850004,No Event,-47834.1171875,-37756.25390625,-37943.58203125,-19532.384765625,-27533.19140625,-40117.87109375,-42817.828125,-46650.23828125
302921.78991850006,No Event,-47841.203125,-37757.50390625,-37744.40625,-19527.154296875,-27542.982421875,-40189.15234375,-42826.27734375,-46658.84375
302921.7939185001,No Event,-47809.48828125,-37767.33984375,-38143.8125,-19508.53515625,-27515.556640625,-40244.42578125,-42795.41015625,-46625.71484375
302921.7977296,No Event,-47841.8984375,-37757.88671875,-37718.7265625,-19504.109375,-27530.107421875,-40162.75390625,-42821.44921875,-46648.6953125
302921.7979185001,No Event,-47787.26953125,-37760.43359375,-38407.58203125,-19492.93359375,-27484.486328125,-40183.16015625,-42769.97265625,-46598.58203125
302921.8017296,No Event,-47817.421875,-37772.9296875,-38054.4921875,-19489.87109375,-27509.65625,-40243.109375,-42802.40625,-46622.87890625
302921.8019185001,No Event,-47813.4453125,-37744.96484375,-38014.3046875,-19494.900390625,-27500.669921875,-40102.40625,-42791.56640625,-46621.828125
302921.8057296,No Event,-47779.671875,-37764.32421875,-38405.66015625,-19465.017578125,-27475.189453125,-40201.265625,-42767.91796875,-46591.36328125
302921.80972960003,No Event,-47800.0546875,-37749.8828125,-38099.375,-19468.81640625,-27484.28515625,-40111.48046875,-42783.1171875,-46616.6640625
302921.81372960005,No Event,-47838.8125,-37760.23046875,-37724.53515625,-19480.126953125,-27519.37890625,-40152.0703125,-42816.21875,-46649.4765625
302921.81772960006,No Event,-47824.84375,-37779.90234375,-37970.60546875,-19471.140625,-27516.3828125,-40246.484375,-42808.88671875,-46638.48046875
302921.8217296001,No Event,-47779.9140625,-37771.51953125,-38388.71875,-19447.3359375,-27478.2734375,-40223.9765625,-42763.46875,-46601.17578125
302921.8257296001,No Event,-47789.39453125,-37749.83984375,-38185.1171875,-19447.828125,-27481.3125,-40118.6328125,-42766.91015625,-46607.0078125
302921.8297296001,No Event,-47816.34765625,-37741.79296875,-37739.82421875,-19451.359375,-27500.15625,-40120.62109375,-42790.828125,-46632.734375
302921.8337296001,No Event,-47810.984375,-37762.0859375,-37873.4453125,-19458.51171875,-27500.201171875,-40217.5390625,-42790.3125,-46630.7890625
302921.8817585,No Event,-47772.83203125,-37766.78125,-38339.9921875,-19440.630859375,-27454.580078125,-40227.015625,-42755.78125,-46592.2109375
302921.8857585,No Event,-47783.08984375,-37758.15234375,-38269.8984375,-19444.587890625,-27460.548828125,-40134.45703125,-42764.6328125,-46602.0703125
302921.88975850004,No Event,-47825.625,-37760.6328125,-37805.33984375,-19471.654296875,-27507.15234375,-40126.2109375,-42807.03125,-46646.34765625
302921.89375850005,No Event,-47828.30859375,-37775.3203125,-37825.72265625,-19471.96875,-27516.986328125,-40220.7578125,-42813.15625,-46652.13671875
302921.89775850007,No Event,-47791.42578125,-37778.44921875,-38296.09375,-19461.439453125,-27500.357421875,-40242.68359375,-42778.01953125,-46615.546875
302921.9017585001,No Event,-47788.72265625,-37765.21875,-38344.91015625,-19467.453125,-27492.17578125,-40159.87109375,-42778.19921875,-46614.67578125
302921.9057585001,No Event,-47827.61328125,-37755.91796875,-37875.1875,-19493.314453125,-27523.021484375,-40120.30859375,-42809.89453125,-46650.32421875
302921.9097585001,No Event,-47834.609375,-37761.484375,-37768.546875,-19495.4375,-27530.978515625,-40192.1015625,-42813.3359375,-46652.94140625
302921.91375850013,No Event,-47796.61328125,-37767.54296875,-38218.109375,-19478.091796875,-27497.25,-40237.921875,-42784.390625,-46612.37109375
302921.91775850015,No Event,-47774.328125,-37748.20703125,-38381.34375,-19476.236328125,-27477.625,-40155.421875,-42760.47265625,-46589.484375
302921.9204,No Event,-47808.48046875,-37738.44140625,-37944.43359375,-19499.595703125,-27508.42578125,-40095.8125,-42795.453125,-46625.71484375
302921.9244,No Event,-47830.2734375,-37751.40234375,-37736.8984375,-19520.560546875,-27532.521484375,-40170.6015625,-42826.25390625,-46647.15234375
302921.92840000003,No Event,-47815.34375,-37776.03515625,-38143.38671875,-19515.80078125,-27522.240234375,-40245.1875,-42807.546875,-46634.9921875
302921.93240000005,No Event,-47785.546875,-37762.8046875,-38421.28515625,-19506.076171875,-27495.216796875,-40183.7421875,-42777.9765625,-46598.625
302921.93640000006,No Event,-47806.11328125,-37744.6328125,-38039.62890625,-19517.341796875,-27507.888671875,-40102.65234375,-42799.8359375,-46621.44921875
302921.9404000001,No Event,-47841.91796875,-37760.07421875,-37733.87890625,-19539.158203125,-27546.267578125,-40162.53125,-42835.2421875,-46658.171875
302921.9444000001,No Event,-47826.71875,-37778.8515625,-38062.16015625,-19534.865234375,-27537.326171875,-40247.69140625,-42819.7734375,-46642.97265625
302921.9484000001,No Event,-47794.734375,-37772.48046875,-38429.30859375,-19517.923828125,-27504.513671875,-40206.51953125,-42785.77734375,-46611.8359375
302921.9524000001,No Event,-47805.77734375,-37748.8984375,-38131.94140625,-19526.39453125,-27517.45703125,-40108.4609375,-42798.09375,-46624.75390625
302921.95640000014,No Event,-47827.4140625,-37740.49609375,-37731.95703125,-19534.91015625,-27538.82421875,-40130.79296875,-42820.66796875,-46649.25390625
302921.96212559997,No Event,-47827.63671875,-37765.6640625,-37959.41015625,-19532.607421875,-27534.7109375,-40226.859375,-42819.1015625,-46647.28515625
302921.9661256,No Event,-47791.875,-37766.22265625,-38395.24609375,-19511.552734375,-27496.46875,-40219.34765625,-42787.20703125,-46612.86328125
302921.9701256,No Event,-47792.859375,-37742.41796875,-38209.66015625,-19511.015625,-27485.42578125,-40109.9609375,-42781.0390625,-46612.3046875
302921.9741256,No Event,-47821.98046875,-37735.2421875,-37752.1171875,-19521.09765625,-27515.154296875,-40105.48828125,-42811.125,-46640.04296875
302921.9781256,No Event,-47824.0390625,-37757.171875,-37872.70703125,-19528.25,-27533.705078125,-40203.76953125,-42815.4140625,-46640.51171875
302921.98212560004,No Event,-47786.12890625,-37763.00390625,-38342.359375,-19507.73046875,-27499.8203125,-40213.76171875,-42778.87109375,-46602.29296875
302921.98612560006,No Event,-47790.6015625,-37748.56640625,-38282.94921875,-19499.326171875,-27491.21484375,-40115.66015625,-42775.49609375,-46600.37109375
302921.9901256001,No Event,-47834.87890625,-37747.22265625,-37808.15625,-19512.71484375,-27520.763671875,-40097.0390625,-42810.09375,-46643.88671875
302921.9939282,No Event,-47788.5,-37759.6953125,-38353.60546875,-19493.515625,-27497.205078125,-40145.54296875,-42777.91015625,-46602.6484375
302921.9941256001,No Event,-47840.0859375,-37764.01171875,-37813.20703125,-19517.6328125,-27512.001953125,-40201.53515625,-42817.31640625,-46651.578125
302921.9979282,No Event,-47827.94921875,-37754.15234375,-37884.796875,-19518.50390625,-27529.50390625,-40109.1328125,-42815.125,-46643.375
302921.9981256001,No Event,-47800.09765625,-37771.0078125,-38285.18359375,-19502.322265625,-27493.65234375,-40229.765625,-42782.109375,-46608.88671875
302922.0019282,No Event,-47852.671875,-37777.35546875,-37769.28515625,-19537.123046875,-27555.54296875,-40198.8515625,-42837.54296875,-46668.2734375
302922.00592820003,No Event,-47804.48046875,-37777.84375,-38212.18359375,-19510.412109375,-27516.205078125,-40242.39453125,-42793.578125,-46620.15234375
302922.00992820004,No Event,-47781.4140625,-37760.27734375,-38392.0703125,-19490.51953125,-27485.248046875,-40159.69140625,-42767.37890625,-46594.89453125
302922.01392820006,No Event,-47820.57421875,-37750.12890625,-37955.96484375,-19505.271484375,-27510.4375,-40094.55859375,-42798.00390625,-46631.9765625
302922.0179282001,No Event,-47845.13671875,-37761.171875,-37727.48828125,-19513.765625,-27532.38671875,-40164.56640625,-42821.40625,-46657.74609375
302922.0219282001,No Event,-47813.82421875,-37770.6484375,-38113.2578125,-19491.861328125,-27505.453125,-40228.19921875,-42791.3203125,-46627.125
302922.0259282001,No Event,-47786.17578125,-37763.29296875,-38407.31640625,-19478.31640625,-27481.24609375,-40173.484375,-42766.26171875,-46604.75
302922.0293244,No Event,-47845.5625,-37758.109375,-37717.98828125,-19508.15625,-27532.296875,-40144.08984375,-42822.1640625,-46660.33984375
302922.0299282001,No Event,-47824.6640625,-37760.1640625,-38042.19921875,-19503.953125,-27509.341796875,-40102.31640625,-42799.96875,-46646.16796875
302922.0333244,No Event,-47826.5859375,-37773.46484375,-38031.71484375,-19500.0859375,-27519.490234375,-40227.6875,-42805.84765625,-46640.04296875
302922.03732440004,No Event,-47793.70703125,-37770.1796875,-38414.04296875,-19480.908203125,-27476.57421875,-40196.4609375,-42775.359375,-46605.30859375
302922.04132440005,No Event,-47805.015625,-37747.0234375,-38132.1875,-19481.1328125,-27473.556640625,-40098.60546875,-42785.8671875,-46615.546875
302922.04532440007,No Event,-47832.33203125,-37739.625,-37721.40625,-19499.193359375,-27524.720703125,-40109.625,-42805.06640625,-46643.64453125
302922.0493244001,No Event,-47819.8125,-37751.8515625,-37934.3515625,-19497.091796875,-27530.77734375,-40198.76171875,-42799.43359375,-46630.58984375
302922.0533244001,No Event,-47779.22265625,-37749.83984375,-38375.6875,-19487.189453125,-27502.81640625,-40190.15625,-42770.421875,-46592.546875
302922.0573244001,No Event,-47791.8515625,-37735.15234375,-38213.50390625,-19492.375,-27507.666015625,-40096.05859375,-42779.47265625,-46605.01953125
302922.0613244001,No Event,-47824.53125,-37731.66796875,-37762.82421875,-19515.80078125,-27529.8828125,-40097.5546875,-42811.9296875,-46633.875
302922.06532440014,No Event,-47815.8125,-37751.2265625,-37868.68359375,-19530.150390625,-27526.306640625,-40194.78515625,-42816.2421875,-46628.3984375
302922.0688297,No Event,-47786.578125,-37767.49609375,-38351.97265625,-19526.171875,-27505.318359375,-40217.828125,-42791.5,-46599.85546875
302922.0728297,No Event,-47779.22265625,-37744.54296875,-38306.77734375,-19510.994140625,-27495.529296875,-40121.3828125,-42780.8359375,-46594.7578125
302922.07682970003,No Event,-47820.4609375,-37741.8359375,-37827.109375,-19523.17578125,-27531.224609375,-40099.25390625,-42820.04296875,-46639.1484375
302922.08082970005,No Event,-47832.0859375,-37761.5078125,-37815.5546875,-19534.486328125,-27538.556640625,-40193.109375,-42836.58203125,-46652.71875
302922.08482970006,No Event,-47793.21484375,-37767.31640625,-38291.9140625,-19518.81640625,-27508.8515625,-40232.4921875,-42802.046875,-46618.49609375
302922.0888297001,No Event,-47780.38671875,-37749.99609375,-38371.3515625,-19505.8984375,-27496.087890625,-40138.94921875,-42783.78515625,-46596.94921875
302922.0928297001,No Event,-47824.8203125,-37745.703125,-37900.84765625,-19522.03515625,-27528.990234375,-40091.05078125,-42820.9375,-46640.984375
302922.0968297001,No Event,-47849.83203125,-37769.28515625,-37774.5390625,-19538.62109375,-27547.1171875,-40186.37890625,-42846.796875,-46668.02734375
302922.1008297001,No Event,-47817.82421875,-37781.84765625,-38224.34375,-19523.19921875,-27519.78125,-40243.80078125,-42817.42578125,-46635.37109375
302922.10482970014,No Event,-47799.1171875,-37767.80859375,-38417.70703125,-19511.150390625,-27501.966796875,-40165.45703125,-42789.5078125,-46612.91015625
302922.10889659997,No Event,-47836.21875,-37757.34765625,-37984.75390625,-19522.193359375,-27525.189453125,-40099.41015625,-42815.6171875,-46650.1015625
302922.1128966,No Event,-47850.14453125,-37760.703125,-37740.33984375,-19525.25390625,-27535.337890625,-40164.0078125,-42832.6015625,-46665.19140625
302922.1168966,No Event,-47814.91796875,-37765.796875,-38116.6328125,-19511.53125,-27501.408203125,-40226.12109375,-42801.625,-46627.7265625
302922.1208966,No Event,-47779.109375,-37747.4921875,-38415.921875,-19492.419921875,-27470.048828125,-40161.703125,-42762.91015625,-46589.84375
302922.1248966,No Event,-47815.92578125,-37740.51953125,-38060.26171875,-19503.86328125,-27503.173828125,-40084.703125,-42796.88671875,-46626.43359375
302922.12889660004,No Event,-47842.1640625,-37746.88671875,-37728.55859375,-19518.34765625,-27532.857421875,-40135.70703125,-42829.36328125,-46652.046875
302922.13289660006,No Event,-47809.578125,-37754.19921875,-38026.5546875,-19509.40625,-27512.8515625,-40210.2734375,-42807.43359375,-46615.94921875
302922.1368966001,No Event,-47771.578125,-37746.375,-38413.6640625,-19484.037109375,-27475.724609375,-40176.8125,-42769.68359375,-46579.42578125
302922.1408966001,No Event,-47789.953125,-37730.5703125,-38145.5078125,-19502.3671875,-27481.73828125,-40077.68359375,-42783.78515625,-46600.75
302922.1423744,No Event,-47814.13671875,-37749.21484375,-37931.87109375,-19512.6484375,-27519.04296875,-40201.734375,-42808.30859375,-46628.04296875
302922.1448966001,No Event,-47831.75,-37738.484375,-37740.00390625,-19524.5390625,-27521.814453125,-40113.984375,-42820.5546875,-46646.7265625
302922.1463744,No Event,-47770.484375,-37742.39453125,-38374.7265625,-19488.462890625,-27479.837890625,-40184.2109375,-42763.4453125,-46582.265625
302922.1503744,No Event,-47783.203125,-37728.3359375,-38223.80859375,-19492.107421875,-27469.310546875,-40089.55078125,-42772.54296875,-46599.2734375
302922.15437440004,No Event,-47830.0078125,-37735.9375,-37771.8125,-19516.0234375,-27513.791015625,-40101.64453125,-42820.64453125,-46650.99609375
302922.15837440005,No Event,-47823.94921875,-37748.7890625,-37857.6875,-19521.767578125,-27532.095703125,-40194.16015625,-42820.5546875,-46644.58203125
302922.16237440007,No Event,-47776.05078125,-37743.984375,-38328.859375,-19498.0078125,-27493.5390625,-40201.1328125,-42776.14453125,-46595.4765625
302922.1663744001,No Event,-47783.06640625,-37736.5859375,-38307.0234375,-19505.384765625,-27492.84765625,-40105.37890625,-42780.2109375,-46601.53125
302922.1703744001,No Event,-47818.5625,-37729.54296875,-37833.03125,-19520.314453125,-27517.322265625,-40082.87109375,-42813.0234375,-46637.2265625
302922.1743744001,No Event,-47818.76171875,-37739.55859375,-37796.5078125,-19522.03515625,-27522.015625,-40167.78515625,-42817.5390625,-46634.8359375
302922.17721199995,No Event,-47767.421875,-37735.01953125,-38366.5234375,-19495.861328125,-27474.541015625,-40119.2578125,-42767.1796875,-46583.0234375
302922.17837440013,No Event,-47780.140625,-37745.03515625,-38264.48828125,-19498.142578125,-27484.30859375,-40203.2109375,-42779.5390625,-46593.375
302922.18121199997,No Event,-47806.15625,-37725.54296875,-37903.171875,-19519.017578125,-27513.25390625,-40068.07421875,-42799.94921875,-46620.88671875
302922.185212,No Event,-47827.63671875,-37742.23828125,-37761.5078125,-19530.306640625,-27534.46484375,-40158.39453125,-42824.48828125,-46638.2578125
302922.189212,No Event,-47795.875,-37754.46484375,-38196.47265625,-19521.6328125,-27506.32421875,-40216.46484375,-42795.56640625,-46603.25390625
302922.193212,No Event,-47764.78515625,-37732.44921875,-38408.72265625,-19506.255859375,-27471.859375,-40133.94140625,-42763.06640625,-46568.09375
302922.197212,No Event,-47803.49609375,-37723.9765625,-37984.578125,-19519.353515625,-27495.26171875,-40066.91015625,-42796.5703125,-46608.4375
302922.20121200004,No Event,-47830.07421875,-37734.328125,-37730.90625,-19530.595703125,-27515.265625,-40136.9375,-42819.99609375,-46636.2890625
302922.20521200006,No Event,-47807.2734375,-37751.46875,-38105.5234375,-19515.3984375,-27493.986328125,-40213.2265625,-42801.98046875,-46614.875
302922.2092120001,No Event,-47770.57421875,-37735.7578125,-38421.44140625,-19488.955078125,-27461.017578125,-40159.4921875,-42764.20703125,-46577.68359375
302922.21160389995,No Event,-47814.71875,-37724.3125,-37722.79296875,-19521.701171875,-27519.177734375,-40116.28515625,-42817.47265625,-46633.5859375
302922.2132120001,No Event,-47777.1875,-37710.56640625,-38065.265625,-19500.7578125,-27480.330078125,-40063.53515625,-42777.28125,-46592.16796875
302922.21560389997,No Event,-47809.0859375,-37751.13671875,-38017.79296875,-19518.125,-27508.89453125,-40211.79296875,-42814.67578125,-46628.53125
302922.2196039,No Event,-47775.71484375,-37747.58203125,-38424.59375,-19505.96484375,-27475.8828125,-40188.34765625,-42777.88671875,-46593.328125
302922.2236039,No Event,-47796.0546875,-37733.76953125,-38171.48046875,-19513.453125,-27487.728515625,-40091.96484375,-42791.83203125,-46614.02734375
302922.2276039,No Event,-47829.0234375,-37734.90625,-37751.0234375,-19521.365234375,-27513.96875,-40115.59375,-42825.51953125,-46651.30859375
302922.2316039,No Event,-47812.66015625,-37745.546875,-37929.50390625,-19511.0390625,-27508.404296875,-40204.171875,-42811.03515625,-46640.08984375
302922.23560390004,No Event,-47778.91015625,-37750.5546875,-38381.54296875,-19501.47265625,-27478.609375,-40197.64453125,-42776.87890625,-46600.90625
302922.23960390006,No Event,-47787.1796875,-37733.74609375,-38250.7421875,-19506.6796875,-27477.87109375,-40101.33203125,-42780.3671875,-46604.3046875
302922.2436039001,No Event,-47821.78125,-37729.72265625,-37784.4375,-19514.927734375,-27508.046875,-40097.17578125,-42813.1796875,-46641.51953125
302922.24383449997,No Event,-47779.19921875,-37746.10546875,-38330.29296875,-19493.89453125,-27474.67578125,-40202.78515625,-42775.828125,-46594.2890625
302922.2476039001,No Event,-47823.27734375,-37747.671875,-37857.1484375,-19506.189453125,-27514.482421875,-40193.7109375,-42817.42578125,-46641.80859375
302922.2478345,No Event,-47786.5546875,-37739.78125,-38323.98828125,-19499.83984375,-27466.091796875,-40114.38671875,-42774.734375,-46598.11328125
302922.2518345,No Event,-47815.0078125,-37727.33203125,-37842.15234375,-19513.900390625,-27486.857421875,-40082.80078125,-42800.99609375,-46623.703125
302922.2558345,No Event,-47824.375,-37744.4296875,-37791.59375,-19520.26953125,-27508.939453125,-40171.58203125,-42808.328125,-46631.640625
302922.25983450003,No Event,-47792.12109375,-37757.66015625,-38261.8046875,-19504.646484375,-27482.900390625,-40216.421875,-42779.51953125,-46598.1796875
302922.26383450005,No Event,-47783.046875,-37747.08984375,-38375.91015625,-19500.35546875,-27464.4609375,-40136.78125,-42769.4375,-46585.83984375
302922.26783450006,No Event,-47813.8671875,-37735.30859375,-37913.90234375,-19515.80078125,-27494.92578125,-40083.00390625,-42796.7734375,-46619.03515625
302922.2718345001,No Event,-47838.03125,-37754.46484375,-37754.19921875,-19525.947265625,-27526.150390625,-40165.28125,-42818.9453125,-46648.3359375
302922.2758345001,No Event,-47802.109375,-37761.57421875,-38180.625,-19504.35546875,-27497.451171875,-40223.70703125,-42787.65234375,-46615.58984375
302922.2798345001,No Event,-47773.48046875,-37742.41796875,-38405.86328125,-19479.09765625,-27469.2890625,-40149.92578125,-42757.90234375,-46583.96484375
302922.2850072,No Event,-47800.546875,-37728.62890625,-37991.55078125,-19494.0078125,-27491.841796875,-40073.50390625,-42784.390625,-46610.09375
302922.2890072,No Event,-47819.90234375,-37735.7578125,-37720.0,-19510.79296875,-27515.35546875,-40138.50390625,-42808.26171875,-46634.3203125
302922.2930072,No Event,-47800.94921875,-37755.62890625,-38085.11328125,-19494.208984375,-27496.1328125,-40218.0078125,-42789.0859375,-46617.26953125
302922.2970072,No Event,-47763.82421875,-37745.34765625,-38414.17578125,-19472.59375,-27464.83984375,-40171.00390625,-42756.00390625,-46582.4453125
302922.30100720003,No Event,-47793.37109375,-37733.90234375,-38077.13671875,-19493.359375,-27484.197265625,-40087.78515625,-42781.7734375,-46614.7421875
302922.30500720005,No Event,-47824.328125,-37742.39453125,-37726.48046875,-19512.6484375,-27523.46875,-40127.68359375,-42819.99609375,-46643.484375
302922.30900720006,No Event,-47807.1640625,-37757.50390625,-38003.375,-19499.4375,-27509.744140625,-40210.72265625,-42800.328125,-46625.55859375
302922.3130072001,No Event,-47763.375,-37746.93359375,-38406.84765625,-19469.5546875,-27466.673828125,-40180.58984375,-42754.3515625,-46582.4453125
302922.3170072001,No Event,-47771.35546875,-37723.64453125,-38163.6796875,-19458.1328125,-27469.244140625,-40074.28515625,-42763.2890625,-46585.26171875
302922.3210072001,No Event,-47814.046875,-37732.2265625,-37744.96484375,-19483.92578125,-27502.078125,-40098.55859375,-42805.35546875,-46626.96875
302922.3628902,No Event,-47814.8515625,-37757.4375,-37921.9921875,-19488.732421875,-27509.296875,-40197.66796875,-42807.66015625,-46625.11328125
302922.3668902,No Event,-47779.9375,-37762.48828125,-38385.3203125,-19473.0859375,-27478.49609375,-40201.87109375,-42775.80859375,-46586.421875
302922.3708902,No Event,-47778.88671875,-37740.31640625,-38261.87109375,-19474.158203125,-27472.619140625,-40099.6328125,-42772.09765625,-46585.640625
302922.37489020004,No Event,-47822.16015625,-37741.4140625,-37794.83203125,-19494.767578125,-27505.654296875,-40095.2734375,-42814.8125,-46630.56640625
302922.37889020005,No Event,-47818.515625,-37754.19921875,-37851.8515625,-19494.275390625,-27507.330078125,-40192.01171875,-42817.71875,-46632.37890625
302922.38289020007,No Event,-47779.3359375,-37757.3046875,-38325.21875,-19474.0234375,-27474.5859375,-40211.4140625,-42777.57421875,-46593.44140625
302922.3868902001,No Event,-47777.66015625,-37743.1328125,-38332.21484375,-19468.63671875,-27469.154296875,-40119.7265625,-42771.44921875,-46593.75390625
302922.3908902001,No Event,-47818.5625,-37734.34765625,-37851.359375,-19490.228515625,-27503.10546875,-40086.265625,-42804.55078125,-46637.33984375
302922.3948902001,No Event,-47825.06640625,-37750.01953125,-37790.8984375,-19508.40234375,-27521.345703125,-40178.734375,-42821.8984375,-46648.29296875
302922.396203,No Event,-47765.07421875,-37734.9296875,-38382.7734375,-19487.703125,-27478.720703125,-40124.7578125,-42767.60546875,-46584.296875
302922.39889020013,No Event,-47784.56640625,-37754.578125,-38257.46875,-19492.7109375,-27487.951171875,-40216.95703125,-42786.08984375,-46605.421875
302922.400203,No Event,-47809.0625,-37733.96875,-37931.828125,-19513.453125,-27522.91015625,-40076.765625,-42812.84375,-46629.89453125
302922.404203,No Event,-47823.09765625,-37743.04296875,-37754.265625,-19518.90625,-27535.60546875,-40153.9921875,-42826.03125,-46640.2890625
302922.408203,No Event,-47791.29296875,-37754.30859375,-38176.78125,-19504.37890625,-27505.431640625,-40218.23046875,-42794.359375,-46609.890625
302922.41220300004,No Event,-47761.140625,-37735.109375,-38418.6484375,-19485.4453125,-27468.416015625,-40144.2265625,-42760.51953125,-46574.6875
302922.41620300006,No Event,-47803.71875,-37731.30859375,-38012.73828125,-19508.580078125,-27500.736328125,-40075.359375,-42797.95703125,-46620.6640625
302922.4202030001,No Event,-47831.4375,-37741.7265625,-37735.578125,-19522.39453125,-27525.97265625,-40141.20703125,-42823.4609375,-46648.73828125
302922.4242030001,No Event,-47804.546875,-37752.85546875,-38089.51953125,-19507.841796875,-27505.990234375,-40214.65625,-42798.58203125,-46618.453125
302922.4282030001,No Event,-47770.41796875,-37742.73046875,-38429.2890625,-19492.93359375,-27481.26953125,-40166.3515625,-42768.87890625,-46579.0703125
302922.4322030001,No Event,-47796.43359375,-37727.64453125,-38103.6875,-19500.82421875,-27492.376953125,-40081.34765625,-42790.76171875,-46605.64453125
302922.4394231,No Event,-47823.546875,-37729.3203125,-37732.2265625,-19512.15625,-27511.33203125,-40115.83984375,-42816.7109375,-46635.28125
302922.4434231,No Event,-47803.65234375,-37743.3359375,-37996.24609375,-19497.42578125,-27501.51953125,-40201.890625,-42799.61328125,-46616.12890625
302922.4474231,No Event,-47767.734375,-37739.33203125,-38407.359375,-19472.2578125,-27475.48046875,-40177.5078125,-42764.20703125,-46581.3046875
302922.4514231,No Event,-47781.859375,-37723.80078125,-38185.765625,-19487.390625,-27486.431640625,-40085.52734375,-42777.59375,-46597.93359375
302922.45542310004,No Event,-47826.2734375,-37733.3671875,-37757.9296875,-19514.525390625,-27525.369140625,-40108.73046875,-42819.55078125,-46644.515625
302922.45942310005,No Event,-47815.87890625,-37747.4921875,-37914.75,-19500.35546875,-27514.505859375,-40200.59765625,-42810.54296875,-46632.48828125
302922.46342310007,No Event,-47777.2578125,-37748.609375,-38372.42578125,-19483.14453125,-27475.412109375,-40196.52734375,-42771.78515625,-46589.37109375
302922.46350199997,No Event,-47777.66015625,-37747.3125,-38320.09765625,-19490.744140625,-27483.861328125,-40198.359375,-42780.27734375,-46587.13671875
302922.4674231001,No Event,-47783.60546875,-37736.76171875,-38273.3828125,-19491.033203125,-27485.962890625,-40098.91796875,-42778.04296875,-46591.80859375
302922.467502,No Event,-47768.26953125,-37730.953125,-38342.18359375,-19487.748046875,-27477.8046875,-40107.72265625,-42773.39453125,-46577.21484375
302922.4714231001,No Event,-47819.09765625,-37731.64453125,-37802.9921875,-19503.439453125,-27518.462890625,-40087.16015625,-42814.96875,-46631.39453125
302922.471502,No Event,-47803.4765625,-37721.49609375,-37866.15625,-19503.193359375,-27513.87890625,-40074.66796875,-42808.328125,-46619.97265625
302922.4754231001,No Event,-47812.34765625,-37738.88671875,-37840.36328125,-19499.28125,-27511.30859375,-40173.50390625,-42812.33203125,-46623.703125
302922.475502,No Event,-47823.2578125,-37741.5234375,-37793.53515625,-19503.685546875,-27533.548828125,-40169.125,-42828.9375,-46646.01171875
302922.47950200003,No Event,-47793.34765625,-37755.73828125,-38255.5703125,-19491.548828125,-27503.240234375,-40217.13671875,-42795.07421875,-46614.5859375
302922.48350200005,No Event,-47767.265625,-37732.89453125,-38388.5625,-19473.48828125,-27472.126953125,-40128.2421875,-42763.11328125,-46584.92578125
302922.48750200006,No Event,-47806.06640625,-37725.87890625,-37941.484375,-19492.822265625,-27498.994140625,-40074.10546875,-42798.2265625,-46623.37109375
