Timestamp,Label,EEG_1,EEG_2,EEG_3,EEG_4,EEG_5,EEG_6,EEG_7,EEG_8
304482.8424654,No Event,-35548.68359375,-23641.619140625,-24128.91015625,-11557.4609375,-17291.17578125,-24547.513671875,-32967.7265625,-32955.3671875
304482.8464654,No Event,-35518.1953125,-23651.453125,-24133.08984375,-11513.3388671875,-17253.04296875,-24656.8125,-32931.62890625,-32922.35546875
304482.8504654,No Event,-35476.77734375,-23645.5078125,-24626.83984375,-11479.833984375,-17219.0234375,-24791.482421875,-32892.91796875,-32881.25
304482.85446540004,No Event,-35506.23828125,-23640.345703125,-24704.578125,-11514.0986328125,-17255.5234375,-24705.451171875,-32920.87890625,-32911.265625
304482.85846540006,No Event,-35545.53125,-23634.935546875,-24197.3046875,-11536.9873046875,-17286.4140625,-24547.400390625,-32956.77734375,-32949.2890625
304482.8624654001,No Event,-35522.9140625,-23644.994140625,-24074.19140625,-11506.208984375,-17258.720703125,-24621.138671875,-32936.14453125,-32923.31640625
304482.8664654001,No Event,-35477.91796875,-23645.6640625,-24544.583984375,-11477.7099609375,-17223.673828125,-24776.529296875,-32897.2734375,-32877.78515625
304482.8694489,No Event,-35467.61328125,-23636.6796875,-24456.2734375,-11485.4658203125,-17220.833984375,-24750.17578125,-32898.125,-32864.84375
304482.8704654001,No Event,-35490.79296875,-23638.578125,-24747.650390625,-11504.107421875,-17250.919921875,-24728.94140625,-32916.20703125,-32893.02734375
304482.8734489,No Event,-35476.17578125,-23635.71875,-24768.4375,-11502.2080078125,-17238.626953125,-24746.509765625,-32908.7421875,-32873.984375
304482.8744654001,No Event,-35534.2890625,-23633.392578125,-24290.78125,-11542.26171875,-17284.537109375,-24556.54296875,-32960.8203125,-32936.5234375
304482.8774489,No Event,-35533.55078125,-23637.685546875,-24400.37109375,-11544.0498046875,-17279.0390625,-24581.599609375,-32961.3125,-32932.12109375
304482.87846540014,No Event,-35517.63671875,-23635.71875,-24037.736328125,-11521.20703125,-17259.32421875,-24583.23046875,-32941.3984375,-32915.625
304482.88144890004,No Event,-35532.2109375,-23641.6640625,-24030.2265625,-11529.9013671875,-17268.376953125,-24565.7734375,-32957.15625,-32930.78125
304482.88544890005,No Event,-35473.5390625,-23643.33984375,-24375.158203125,-11500.4423828125,-17244.638671875,-24733.79296875,-32915.515625,-32875.16796875
304482.88944890007,No Event,-35467.3671875,-23643.80859375,-24778.65234375,-11504.8896484375,-17247.634765625,-24767.900390625,-32918.5546875,-32871.9296875
304482.8934489001,No Event,-35524.1640625,-23650.201171875,-24517.0703125,-11560.0986328125,-17302.529296875,-24612.6015625,-32977.25,-32931.921875
304482.8974489001,No Event,-35536.4140625,-23651.20703125,-24062.63671875,-11577.6220703125,-17307.6484375,-24553.63671875,-32983.640625,-32942.89453125
304482.9014489001,No Event,-35490.81640625,-23661.4453125,-24302.404296875,-11543.71484375,-17276.6015625,-24720.001953125,-32945.21875,-32900.29296875
304482.9040633,No Event,-35516.7890625,-23652.97265625,-24615.775390625,-11570.6259765625,-17312.119140625,-24655.001953125,-32973.6953125,-32934.04296875
304482.9054489001,No Event,-35469.2890625,-23656.013671875,-24764.033203125,-11532.5390625,-17270.56640625,-24796.890625,-32929.640625,-32883.41796875
304482.9080633,No Event,-35544.99609375,-23654.896484375,-24107.921875,-11576.0126953125,-17328.615234375,-24555.314453125,-32995.35546875,-32961.78125
304482.9120633,No Event,-35516.51953125,-23675.4375,-24224.955078125,-11551.0458984375,-17308.341796875,-24702.634765625,-32966.72265625,-32930.2890625
304482.91606330004,No Event,-35474.09765625,-23663.76953125,-24715.5078125,-11536.3837890625,-17278.79296875,-24804.267578125,-32929.4375,-32887.62109375
304482.92006330006,No Event,-35505.5,-23657.17578125,-24702.119140625,-11563.09375,-17315.76171875,-24680.953125,-32964.0625,-32921.01171875
304482.9240633001,No Event,-35542.15625,-23656.236328125,-24185.16796875,-11578.0244140625,-17345.244140625,-24552.67578125,-32997.92578125,-32960.015625
304482.9280633001,No Event,-35517.546875,-23668.6875,-24156.9609375,-11564.1669921875,-17315.001953125,-24668.369140625,-32970.1875,-32935.36328125
304482.9320633001,No Event,-35476.21875,-23666.33984375,-24648.6328125,-11539.22265625,-17287.30859375,-24803.484375,-32935.5625,-32892.0234375
304482.9360633001,No Event,-35503.64453125,-23664.373046875,-24761.552734375,-11564.1220703125,-17310.576171875,-24717.38671875,-32961.53515625,-32919.9609375
304482.93951229996,No Event,-35526.0625,-23665.892578125,-24103.427734375,-11561.5966796875,-17309.884765625,-24629.521484375,-32973.71875,-32935.09375
304482.94006330014,No Event,-35542.87109375,-23657.556640625,-24263.244140625,-11585.9599609375,-17334.560546875,-24555.984375,-32994.796875,-32955.0546875
304482.9435123,No Event,-35491.10546875,-23675.080078125,-24565.88671875,-11536.6962890625,-17277.65234375,-24795.83984375,-32940.94921875,-32896.71484375
304482.9475123,No Event,-35493.9453125,-23659.03125,-24787.8828125,-11544.720703125,-17284.1796875,-24738.10546875,-32942.29296875,-32896.4921875
304482.9515123,No Event,-35540.7265625,-23651.365234375,-24345.7890625,-11578.046875,-17317.484375,-24561.013671875,-32982.1015625,-32943.1875
304482.9555123,No Event,-35529.6171875,-23653.419921875,-24061.36328125,-11552.4990234375,-17294.595703125,-24587.298828125,-32968.3984375,-32933.3046875
304482.95951230003,No Event,-35483.59375,-23656.392578125,-24461.97265625,-11524.1796875,-17261.044921875,-24760.546875,-32927.78515625,-32887.953125
304482.96351230005,No Event,-35485.046875,-23648.302734375,-24790.185546875,-11536.80859375,-17267.03515625,-24756.166015625,-32929.3046875,-32886.45703125
304482.96751230006,No Event,-35532.43359375,-23639.763671875,-24431.955078125,-11580.1259765625,-17299.625,-24578.783203125,-32973.2265625,-32936.078125
304482.9715123001,No Event,-35528.8125,-23634.220703125,-24035.076171875,-11561.7978515625,-17290.705078125,-24552.05078125,-32962.69921875,-32932.41015625
304482.97433969995,No Event,-35467.8359375,-23635.94140625,-24756.03125,-11518.255859375,-17259.212890625,-24757.3515625,-32914.328125,-32877.2265625
304482.9755123001,No Event,-35472.2421875,-23632.74609375,-24343.93359375,-11507.416015625,-17245.2421875,-24716.693359375,-32910.41796875,-32877.44921875
304482.97833969997,No Event,-35517.8828125,-23634.3984375,-24524.916015625,-11566.513671875,-17298.640625,-24603.2578125,-32965.76171875,-32934.40234375
304482.9823397,No Event,-35542.42578125,-23642.87109375,-24060.177734375,-11565.9775390625,-17302.9765625,-24544.830078125,-32978.65625,-32960.44140625
304482.9863397,No Event,-35496.26953125,-23651.654296875,-24255.46484375,-11516.333984375,-17256.552734375,-24705.740234375,-32932.65625,-32913.01171875
304482.9903397,No Event,-35471.2109375,-23648.97265625,-24723.578125,-11503.951171875,-17247.65625,-24785.08984375,-32912.54296875,-32887.3046875
304482.99433970003,No Event,-35510.015625,-23644.61328125,-24616.958984375,-11546.822265625,-17287.822265625,-24644.18359375,-32954.5625,-32928.30078125
304482.99833970005,No Event,-35544.50390625,-23651.07421875,-24115.296875,-11561.775390625,-17294.3046875,-24543.6015625,-32983.41796875,-32960.15234375
304483.0014114,No Event,-35548.796875,-23651.96875,-24177.412109375,-11571.9453125,-17305.30078125,-24543.35546875,-32981.140625,-32965.91796875
304483.00233970006,No Event,-35506.5078125,-23656.638671875,-24182.8671875,-11525.6103515625,-17249.220703125,-24682.271484375,-32945.21875,-32923.046875
304483.0054114,No Event,-35510.796875,-23653.5546875,-24118.6953125,-11530.236328125,-17251.3671875,-24648.185546875,-32945.48828125,-32929.08203125
304483.0063397001,No Event,-35476.30859375,-23654.984375,-24667.943359375,-11519.150390625,-17232.2109375,-24797.673828125,-32916.9453125,-32895.01953125
304483.0094114,No Event,-35467.6796875,-23650.537109375,-24593.087890625,-11514.412109375,-17233.59765625,-24782.20703125,-32908.62890625,-32883.8203125
304483.0103397001,No Event,-35503.890625,-23645.150390625,-24687.45703125,-11549.9736328125,-17270.8125,-24680.28125,-32943.1640625,-32922.6015625
304483.0134114,No Event,-35489.765625,-23644.63671875,-24737.703125,-11548.296875,-17277.205078125,-24700.0625,-32935.4296875,-32903.01953125
304483.01741140004,No Event,-35530.3125,-23639.583984375,-24256.314453125,-11581.7353515625,-17306.732421875,-24540.271484375,-32973.44921875,-32942.1796875
304483.02141140006,No Event,-35514.8671875,-23648.01171875,-24059.328125,-11559.5400390625,-17281.005859375,-24604.48828125,-32953.78125,-32923.5390625
304483.02541140007,No Event,-35469.55859375,-23648.056640625,-24504.306640625,-11519.1279296875,-17240.2578125,-24764.435546875,-32906.015625,-32872.578125
304483.0294114001,No Event,-35474.87890625,-23640.255859375,-24765.107421875,-11530.1923828125,-17252.283203125,-24721.9453125,-32916.65234375,-32876.0625
304483.0334114001,No Event,-35520.3203125,-23641.8203125,-24352.13671875,-11575.9462890625,-17293.544921875,-24550.3515625,-32971.99609375,-32926.53515625
304483.0367226,No Event,-35461.80078125,-23649.0625,-24423.326171875,-11526.19140625,-17240.1015625,-24750.376953125,-32915.58203125,-32871.1015625
304483.0374114001,No Event,-35515.515625,-23649.509765625,-24044.666015625,-11564.904296875,-17281.67578125,-24580.236328125,-32967.3046875,-32925.28125
304483.0407226,No Event,-35457.21875,-23640.6796875,-24771.0078125,-11535.4443359375,-17248.86328125,-24745.66015625,-32914.44140625,-32869.91796875
304483.0447226,No Event,-35505.74609375,-23636.791015625,-24449.880859375,-11576.5048828125,-17280.693359375,-24574.9375,-32964.0859375,-32923.203125
304483.04872260004,No Event,-35522.890625,-23654.380859375,-24052.578125,-11578.248046875,-17288.068359375,-24562.15234375,-32981.765625,-32943.7890625
304483.05272260006,No Event,-35494.83984375,-23679.4609375,-24356.40625,-11554.98046875,-17273.048828125,-24752.634765625,-32954.67578125,-32915.26953125
304483.0567226001,No Event,-35476.1953125,-23669.134765625,-24777.265625,-11547.0009765625,-17259.837890625,-24787.66015625,-32933.75390625,-32895.53125
304483.0607226001,No Event,-35513.8359375,-23653.822265625,-24558.732421875,-11572.34765625,-17286.146484375,-24618.2109375,-32965.15625,-32934.7578125
304483.0647226001,No Event,-35531.71875,-23651.69921875,-24078.640625,-11572.5712890625,-17290.34765625,-24545.478515625,-32976.0859375,-32952.9296875
304483.0687226001,No Event,-35489.47265625,-23656.59375,-24245.16015625,-11529.3876953125,-17248.796875,-24701.337890625,-32931.2265625,-32908.44921875
304483.0693863,No Event,-35507.64453125,-23651.185546875,-24630.169921875,-11550.0849609375,-17271.728515625,-24647.08984375,-32949.53515625,-32933.77734375
304483.07272260013,No Event,-35467.7265625,-23655.990234375,-24712.2890625,-11517.8984375,-17235.138671875,-24787.279296875,-32913.81640625,-32890.61328125
304483.0733863,No Event,-35537.8671875,-23652.392578125,-24116.615234375,-11562.3115234375,-17285.810546875,-24540.091796875,-32976.17578125,-32966.0078125
304483.0773863,No Event,-35501.296875,-23662.138671875,-24164.939453125,-11512.4443359375,-17246.046875,-24683.0546875,-32941.0390625,-32928.5
304483.08138630004,No Event,-35463.5,-23656.6171875,-24654.421875,-11486.8740234375,-17223.673828125,-24796.443359375,-32907.6015625,-32889.67578125
304483.08538630005,No Event,-35491.08203125,-23647.072265625,-24689.982421875,-11531.734375,-17254.474609375,-24676.326171875,-32938.0,-32917.68359375
304483.08938630007,No Event,-35530.04296875,-23645.9765625,-24180.69921875,-11560.568359375,-17290.28125,-24538.3046875,-32974.76953125,-32957.22265625
304483.0933863001,No Event,-35504.44921875,-23654.873046875,-24097.103515625,-11526.6162109375,-17257.849609375,-24639.9375,-32949.2890625,-32929.7734375
304483.096355,No Event,-35517.5703125,-23656.6171875,-24066.50390625,-11543.0888671875,-17274.34375,-24605.314453125,-32966.85546875,-32934.04296875
304483.0973863001,No Event,-35464.55078125,-23653.755859375,-24576.345703125,-11500.173828125,-17228.388671875,-24787.8828125,-32913.5234375,-32887.0390625
304483.100355,No Event,-35468.7109375,-23657.734375,-24508.732421875,-11512.109375,-17239.69921875,-24775.455078125,-32919.46875,-32884.40234375
304483.1013863001,No Event,-35480.30859375,-23644.748046875,-24737.703125,-11536.47265625,-17258.5859375,-24705.13671875,-32937.91015625,-32902.52734375
304483.104355,No Event,-35468.46484375,-23642.06640625,-24771.857421875,-11516.0654296875,-17242.314453125,-24725.58984375,-32921.05859375,-32884.82421875
304483.1053863001,No Event,-35521.99609375,-23640.478515625,-24270.396484375,-11556.947265625,-17284.1796875,-24537.119140625,-32976.109375,-32941.77734375
304483.10835500003,No Event,-35524.0078125,-23641.529296875,-24363.22265625,-11547.2236328125,-17278.099609375,-24550.57421875,-32967.79296875,-32940.75
304483.11235500005,No Event,-35532.76953125,-23656.37109375,-24038.787109375,-11545.3466796875,-17276.06640625,-24578.24609375,-32968.17578125,-32950.7421875
304483.11635500006,No Event,-35488.625,-23662.31640625,-24414.744140625,-11505.1806640625,-17242.896484375,-24765.8671875,-32926.62109375,-32907.15625
304483.1203550001,No Event,-35486.8359375,-23656.4375,-24777.109375,-11521.4970703125,-17252.037109375,-24767.744140625,-32925.73046875,-32905.5
304483.1243550001,No Event,-35528.23046875,-23641.595703125,-24460.5859375,-11544.876953125,-17273.271484375,-24574.603515625,-32957.9140625,-32944.39453125
304483.1283550001,No Event,-35540.1015625,-23646.55859375,-24035.12109375,-11553.5498046875,-17271.86328125,-24543.84765625,-32965.828125,-32954.49609375
304483.1305965,No Event,-35476.7109375,-23650.849609375,-24747.494140625,-11517.49609375,-17244.908203125,-24766.08984375,-32915.671875,-32893.09375
304483.1323550001,No Event,-35494.4375,-23656.818359375,-24313.869140625,-11521.2958984375,-17244.638671875,-24723.509765625,-32925.73046875,-32908.2734375
304483.1345965,No Event,-35519.76171875,-23642.826171875,-24553.435546875,-11555.337890625,-17282.033203125,-24601.044921875,-32957.4453125,-32938.37890625
304483.13859650004,No Event,-35546.89453125,-23650.76171875,-24076.248046875,-11568.279296875,-17301.3671875,-24535.77734375,-32983.6640625,-32966.41015625
304483.14259650005,No Event,-35513.61328125,-23667.32421875,-24243.8203125,-11532.9638671875,-17269.740234375,-24707.439453125,-32950.26953125,-32928.79296875
304483.14659650007,No Event,-35486.5,-23667.7265625,-24723.509765625,-11530.9970703125,-17259.189453125,-24796.845703125,-32932.41015625,-32902.3046875
304483.1505965001,No Event,-35524.05078125,-23668.060546875,-24664.658203125,-11579.8125,-17296.875,-24658.712890625,-32974.8359375,-32940.99609375
304483.1545965001,No Event,-35554.5859375,-23670.9453125,-24152.646484375,-11593.8720703125,-17310.017578125,-24546.8203125,-33000.80859375,-32968.46484375
304483.1585965001,No Event,-35511.9140625,-23673.783203125,-24178.59765625,-11548.0732421875,-17267.99609375,-24683.544921875,-32953.625,-32923.2265625
304483.16259650013,No Event,-35491.484375,-23686.9921875,-24673.46484375,-11540.3173828125,-17256.486328125,-24816.806640625,-32939.02734375,-32902.953125
304483.16527899995,No Event,-35562.38671875,-23676.287109375,-24226.251953125,-11599.4150390625,-17311.380859375,-24552.966796875,-33004.609375,-32971.75
304483.16659650014,No Event,-35524.27734375,-23681.494140625,-24737.033203125,-11574.158203125,-17286.482421875,-24705.40625,-32969.046875,-32935.69921875
304483.16927899997,No Event,-35539.25,-23686.94921875,-24122.427734375,-11565.5078125,-17285.990234375,-24659.25,-32978.45703125,-32949.01953125
304483.173279,No Event,-35491.26171875,-23681.650390625,-24595.658203125,-11528.8291015625,-17247.365234375,-24812.0234375,-32931.046875,-32903.17578125
304483.177279,No Event,-35515.6484375,-23683.439453125,-24786.095703125,-11560.166015625,-17271.55078125,-24734.57421875,-32958.05078125,-32930.01953125
304483.181279,No Event,-35585.6328125,-23702.080078125,-24332.265625,-11602.611328125,-17329.330078125,-24584.482421875,-33021.796875,-33004.609375
304483.185279,No Event,-35571.83984375,-23704.76171875,-24098.689453125,-11567.162109375,-17294.685546875,-24646.6875,-33000.6953125,-32991.30859375
304483.18927900004,No Event,-35535.18359375,-23715.134765625,-24536.380859375,-11550.822265625,-17276.982421875,-24823.53515625,-32969.76171875,-32954.60546875
304483.19327900006,No Event,-35534.66796875,-23702.080078125,-24828.564453125,-11562.244140625,-17284.6484375,-24784.240234375,-32973.671875,-32953.7578125
304483.1972790001,No Event,-35570.9921875,-23685.181640625,-24427.73046875,-11593.8271484375,-17311.962890625,-24596.216796875,-33010.6640625,-32993.56640625
304483.19914569997,No Event,-35532.7265625,-23708.96484375,-24448.919921875,-11568.234375,-17294.283203125,-24807.732421875,-32978.14453125,-32949.8671875
304483.2012790001,No Event,-35576.1328125,-23696.9609375,-24082.306640625,-11600.6220703125,-17319.2265625,-24618.255859375,-33016.56640625,-32997.1640625
304483.2031457,No Event,-35520.453125,-23695.955078125,-24818.794921875,-11568.01171875,-17295.869140625,-24805.451171875,-32972.5546875,-32938.73828125
304483.2071457,No Event,-35557.98046875,-23681.919921875,-24519.4609375,-11611.552734375,-17326.759765625,-24614.6796875,-33006.41796875,-32975.91015625
304483.2111457,No Event,-35570.3203125,-23687.41796875,-24086.171875,-11615.576171875,-17320.74609375,-24579.51953125,-33014.48828125,-32985.8984375
304483.2151457,No Event,-35524.56640625,-23696.671875,-24347.21875,-11577.0634765625,-17287.197265625,-24763.587890625,-32973.359375,-32939.765625
304483.21914570004,No Event,-35513.50390625,-23699.15234375,-24790.296875,-11582.875,-17289.9453125,-24815.353515625,-32968.30859375,-32927.31640625
304483.22314570006,No Event,-35561.24609375,-23698.28125,-24620.87109375,-11621.2529296875,-17332.078125,-24654.578125,-33014.95703125,-32977.13671875
304483.2271457001,No Event,-35584.625,-23701.96875,-24137.0,-11636.4072265625,-17342.451171875,-24585.197265625,-33033.890625,-33004.18359375
304483.2311457001,No Event,-35532.65625,-23699.263671875,-24266.015625,-11581.0419921875,-17286.97265625,-24741.4140625,-32980.53515625,-32951.09765625
304483.23185479996,No Event,-35556.5078125,-23707.01953125,-24712.625,-11611.3515625,-17316.611328125,-24698.833984375,-33006.015625,-32978.09765625
304483.2351457001,No Event,-35520.87890625,-23712.943359375,-24749.169921875,-11581.7353515625,-17285.275390625,-24837.794921875,-32975.953125,-32941.98046875
304483.2358548,No Event,-35584.55859375,-23697.408203125,-24190.890625,-11619.15234375,-17328.01171875,-24575.541015625,-33027.2734375,-33007.1328125
304483.2398548,No Event,-35544.19140625,-23702.662109375,-24196.232421875,-11574.470703125,-17293.298828125,-24711.931640625,-32994.953125,-32963.99609375
304483.2438548,No Event,-35515.9609375,-23712.67578125,-24684.685546875,-11555.494140625,-17281.609375,-24846.982421875,-32977.203125,-32937.80078125
304483.2478548,No Event,-35547.09765625,-23713.14453125,-24777.556640625,-11586.00390625,-17309.1015625,-24741.837890625,-33004.31640625,-32971.1484375
304483.25185480004,No Event,-35583.28515625,-23706.193359375,-24279.693359375,-11599.2138671875,-17332.4140625,-24592.41796875,-33037.3984375,-33008.4296875
304483.25585480005,No Event,-35578.74609375,-23730.064453125,-24159.12890625,-11596.822265625,-17322.69140625,-24708.423828125,-33032.99609375,-33004.609375
304483.25985480007,No Event,-35543.3203125,-23736.63671875,-24622.501953125,-11582.31640625,-17303.37890625,-24865.958984375,-32998.23828125,-32969.13671875
304483.2638548001,No Event,-35552.23828125,-23724.990234375,-24829.14453125,-11603.416015625,-17316.611328125,-24791.01171875,-33006.8671875,-32977.8515625
304483.2664732,No Event,-35585.4765625,-23728.12109375,-24129.71484375,-11617.341796875,-17325.59765625,-24670.603515625,-33035.67578125,-33005.7265625
304483.2678548001,No Event,-35597.6796875,-23719.759765625,-24386.625,-11619.822265625,-17336.19140625,-24617.294921875,-33046.40625,-33021.6171875
304483.2704732,No Event,-35531.96484375,-23726.98046875,-24538.37109375,-11584.6630859375,-17302.955078125,-24842.197265625,-32993.38671875,-32951.96875
304483.2744732,No Event,-35542.828125,-23726.3984375,-24851.138671875,-11601.4716796875,-17319.62890625,-24821.58984375,-33007.58203125,-32967.234375
304483.27847320004,No Event,-35593.41015625,-23727.248046875,-24491.947265625,-11658.580078125,-17375.59765625,-24645.5703125,-33056.8671875,-33017.52734375
304483.28247320006,No Event,-35596.203125,-23737.775390625,-24127.74609375,-11645.169921875,-17377.318359375,-24648.564453125,-33058.8125,-33017.39453125
304483.2864732001,No Event,-35548.9296875,-23745.689453125,-24458.216796875,-11602.9697265625,-17332.34765625,-24835.58203125,-33017.34765625,-32971.05859375
304483.2904732001,No Event,-35531.921875,-23724.41015625,-24835.4921875,-11599.728515625,-17312.6328125,-24832.1171875,-32996.96484375,-32952.9296875
304483.2944732001,No Event,-35571.1484375,-23708.875,-24567.96484375,-11633.814453125,-17346.115234375,-24644.408203125,-33027.7421875,-32990.16796875
304483.2984732001,No Event,-35584.109375,-23702.728515625,-24114.603515625,-11632.6748046875,-17346.98828125,-24603.146484375,-33035.07421875,-33002.55078125
304483.30218369997,No Event,-35532.1640625,-23705.5234375,-24793.248046875,-11596.912109375,-17303.759765625,-24839.314453125,-32988.984375,-32946.40234375
304483.30247320014,No Event,-35537.39453125,-23700.068359375,-24340.53515625,-11594.3193359375,-17309.97265625,-24778.830078125,-32992.60546875,-32953.6015625
304483.3061837,No Event,-35571.1484375,-23695.30859375,-24648.408203125,-11640.4755859375,-17344.931640625,-24669.173828125,-33024.8359375,-32984.40234375
304483.3101837,No Event,-35601.56640625,-23706.640625,-24170.08203125,-11659.1171875,-17371.306640625,-24595.390625,-33055.03515625,-33011.46875
304483.3141837,No Event,-35564.5546875,-23716.787109375,-24272.787109375,-11624.001953125,-17332.97265625,-24751.248046875,-33014.0859375,-32970.69921875
304483.31818370003,No Event,-35526.5546875,-23705.076171875,-24736.921875,-11604.1318359375,-17301.033203125,-24833.81640625,-32981.921875,-32927.8984375
304483.32218370005,No Event,-35559.43359375,-23704.517578125,-24731.4453125,-11625.7900390625,-17327.541015625,-24698.72265625,-33015.96484375,-32959.75
304483.32618370006,No Event,-35586.92578125,-23687.193359375,-24215.455078125,-11640.20703125,-17347.390625,-24565.572265625,-33033.84375,-32992.0
304483.3301837001,No Event,-35562.9453125,-23702.572265625,-24186.0859375,-11621.0517578125,-17324.591796875,-24704.578125,-33012.20703125,-32968.0859375
304483.3341837001,No Event,-35535.83203125,-23716.138671875,-24678.248046875,-11604.958984375,-17313.259765625,-24845.3046875,-32989.72265625,-32936.12109375
304483.3359892,No Event,-35604.62890625,-23723.8515625,-24318.49609375,-11667.431640625,-17357.783203125,-24598.765625,-33060.15234375,-33010.2421875
304483.3381837001,No Event,-35562.2734375,-23717.63671875,-24800.892578125,-11641.705078125,-17340.259765625,-24747.873046875,-33021.9765625,-32967.34765625
304483.3399892,No Event,-35595.0859375,-23752.169921875,-24177.390625,-11641.5927734375,-17336.302734375,-24709.384765625,-33052.375,-32994.37109375
304483.3439892,No Event,-35531.8984375,-23730.82421875,-24599.48046875,-11575.4541015625,-17292.44921875,-24861.041015625,-32993.453125,-32940.078125
304483.34798920003,No Event,-35532.8828125,-23707.490234375,-24802.3671875,-11598.87890625,-17300.31640625,-24773.376953125,-32978.45703125,-32942.13671875
304483.35198920005,No Event,-35588.22265625,-23720.38671875,-24393.509765625,-11651.517578125,-17355.458984375,-24611.3046875,-33042.5625,-32998.4375
304483.35598920006,No Event,-35581.33984375,-23736.79296875,-24118.873046875,-11629.6572265625,-17335.455078125,-24664.12109375,-33033.171875,-32985.05078125
304483.3599892001,No Event,-35544.94921875,-23757.423828125,-24528.37890625,-11591.369140625,-17303.55859375,-24855.228515625,-33006.46484375,-32951.4765625
304483.3625247,No Event,-35512.5390625,-23696.1796875,-24369.525390625,-11533.74609375,-17258.541015625,-24781.201171875,-32945.12890625,-32915.8046875
304483.3639892001,No Event,-35561.6015625,-23777.09375,-24883.16796875,-11635.111328125,-17328.345703125,-24843.94140625,-33028.3671875,-32967.4140625
304483.3665247,No Event,-35515.4453125,-23710.193359375,-24788.978515625,-11595.81640625,-17286.392578125,-24807.0390625,-32965.9609375,-32921.1484375
304483.3679892001,No Event,-35617.16796875,-23797.880859375,-24582.1796875,-11673.8916015625,-17372.916015625,-24678.470703125,-33089.8359375,-33020.7890625
304483.37052470003,No Event,-35585.5625,-23746.626953125,-24600.396484375,-11657.7978515625,-17340.953125,-24660.76953125,-33035.07421875,-32989.54296875
304483.3719892001,No Event,-35598.70703125,-23765.314453125,-24135.8828125,-11595.1015625,-17324.724609375,-24671.720703125,-33050.00390625,-33010.5078125
304483.37452470005,No Event,-35593.03125,-23741.822265625,-24149.09375,-11632.7421875,-17327.876953125,-24611.169921875,-33033.171875,-32992.16015625
304483.37852470006,No Event,-35544.234375,-23758.31640625,-24371.224609375,-11627.3330078125,-17300.83203125,-24785.380859375,-33005.7265625,-32948.28125
304483.3825247001,No Event,-35535.71875,-23778.92578125,-24853.798828125,-11606.7021484375,-17302.955078125,-24872.91015625,-33010.30859375,-32943.83203125
304483.3865247001,No Event,-35544.32421875,-23725.548828125,-24676.169921875,-11595.212890625,-17305.345703125,-24683.45703125,-33007.11328125,-32959.0546875
304483.3905247001,No Event,-35587.53125,-23749.376953125,-24187.76171875,-11646.845703125,-17328.97265625,-24599.837890625,-33044.015625,-32997.3671875
304483.3945247001,No Event,-35540.92578125,-23747.923828125,-24261.0078125,-11603.39453125,-17279.126953125,-24748.58984375,-32991.5546875,-32947.76953125
304483.397334,No Event,-35522.75390625,-23710.775390625,-24727.041015625,-11596.30859375,-17269.181640625,-24692.21875,-32998.640625,-32934.87109375
304483.39852470014,No Event,-35488.24609375,-23708.517578125,-24693.46875,-11565.5078125,-17239.20703125,-24818.416015625,-32946.96484375,-32900.31640625
304483.401334,No Event,-35578.5234375,-23741.576171875,-24247.708984375,-11642.62109375,-17309.01171875,-24582.11328125,-33036.4140625,-32992.26953125
304483.405334,No Event,-35611.515625,-23857.1796875,-24278.62109375,-11633.3232421875,-17321.41796875,-24772.595703125,-33059.32421875,-33013.83984375
304483.409334,No Event,-35496.6484375,-23731.49609375,-24651.001953125,-11539.7587890625,-17245.755859375,-24822.1484375,-32944.5703125,-32905.8359375
304483.41333400004,No Event,-35530.3984375,-23745.576171875,-24808.021484375,-11564.0546875,-17277.31640625,-24727.712890625,-32979.86328125,-32939.72265625
304483.41733400006,No Event,-35540.63671875,-23686.27734375,-24293.126953125,-11558.51171875,-17268.7109375,-24544.583984375,-32983.28515625,-32961.37890625
304483.4213340001,No Event,-35535.609375,-23707.556640625,-24109.240234375,-11590.1396484375,-17268.109375,-24653.34765625,-32997.87890625,-32961.87109375
304483.423439,No Event,-35524.9453125,-23678.455078125,-24052.064453125,-11542.798828125,-17247.9921875,-24586.181640625,-32958.02734375,-32937.75390625
304483.4253340001,No Event,-35502.1015625,-23726.443359375,-24552.7421875,-11556.142578125,-17232.994140625,-24827.759765625,-32962.25,-32922.77734375
304483.427439,No Event,-35498.16796875,-23701.275390625,-24439.53125,-11533.701171875,-17232.568359375,-24782.25,-32941.375,-32907.33203125
304483.4293340001,No Event,-35507.890625,-23715.3359375,-24808.55859375,-11580.3046875,-17259.32421875,-24754.982421875,-32971.50390625,-32928.1875
304483.431439,No Event,-35510.6171875,-23724.431640625,-24813.185546875,-11550.2197265625,-17248.662109375,-24786.7890625,-32960.6875,-32925.4609375
304483.4333340001,No Event,-35554.44921875,-23704.875,-24390.669921875,-11581.19921875,-17285.654296875,-24579.677734375,-33006.375,-32971.66015625
304483.435439,No Event,-35573.73828125,-23743.744140625,-24525.361328125,-11606.2998046875,-17297.09765625,-24609.427734375,-33009.52734375,-32973.26953125
304483.43943900004,No Event,-35568.53125,-23720.810546875,-24094.599609375,-11572.0791015625,-17270.611328125,-24592.55078125,-33002.21484375,-32969.6953125
304483.44343900005,No Event,-35503.109375,-23694.033203125,-24339.1953125,-11530.169921875,-17216.7890625,-24769.287109375,-32942.3125,-32913.7265625
304483.44743900007,No Event,-35486.92578125,-23693.408203125,-24754.423828125,-11519.91015625,-17209.658203125,-24772.1484375,-32928.76953125,-32892.515625
304483.4514390001,No Event,-35536.0546875,-23697.119140625,-24565.439453125,-11577.0634765625,-17257.982421875,-24612.220703125,-32984.2890625,-32943.87890625
304483.4554390001,No Event,-35543.7421875,-23684.064453125,-24094.533203125,-11587.345703125,-17273.451171875,-24545.74609375,-32984.1328125,-32949.51171875
304483.45911939995,No Event,-35483.4375,-23705.1875,-24737.615234375,-11496.26171875,-17208.33984375,-24795.03515625,-32925.1015625,-32890.03125
304483.4594390001,No Event,-35499.421875,-23690.099609375,-24253.587890625,-11532.650390625,-17227.71875,-24724.181640625,-32941.59765625,-32909.3671875
304483.46311939997,No Event,-35522.2421875,-23696.939453125,-24649.66015625,-11569.8662109375,-17258.228515625,-24630.99609375,-32959.6796875,-32937.62109375
304483.4671194,No Event,-35567.3046875,-23718.59765625,-24164.1796875,-11624.94140625,-17300.00390625,-24556.7890625,-33008.51953125,-32981.25
304483.4711194,No Event,-35533.10546875,-23724.65625,-24211.029296875,-11564.189453125,-17260.30859375,-24717.7890625,-32971.08203125,-32942.046875
304483.4751194,No Event,-35477.1796875,-23691.396484375,-24665.328125,-11512.0869140625,-17208.876953125,-24797.96484375,-32922.98046875,-32887.328125
304483.4791194,No Event,-35520.18359375,-23699.8671875,-24727.109375,-11559.62890625,-17246.8515625,-24668.30078125,-32970.58984375,-32929.1953125
304483.48311940004,No Event,-35572.95703125,-23709.544921875,-24237.830078125,-11595.3251953125,-17294.70703125,-24548.00390625,-33012.56640625,-32979.796875
304483.48711940006,No Event,-35534.9609375,-23696.4921875,-24134.900390625,-11553.9296875,-17276.669921875,-24660.142578125,-32974.09765625,-32938.24609375
304483.4911194001,No Event,-35507.19921875,-23704.8515625,-24595.279296875,-11545.63671875,-17251.30078125,-24799.013671875,-32944.48046875,-32903.64453125
304483.4951194001,No Event,-35529.5078125,-23699.130859375,-24763.630859375,-11578.13671875,-17270.880859375,-24701.2265625,-32976.33203125,-32922.93359375
304483.6389486,No Event,-35569.8046875,-23701.1640625,-24326.587890625,-11626.6396484375,-17311.1796875,-24539.66796875,-33024.27734375,-32958.875
304483.6429486,No Event,-35546.44921875,-23704.2265625,-24099.2265625,-11568.2568359375,-17280.40234375,-24611.169921875,-32995.734375,-32937.93359375
304483.6469486,No Event,-35496.40234375,-23696.671875,-24508.576171875,-11531.689453125,-17242.91796875,-24780.73046875,-32963.48046875,-32890.7265625
304483.6509486,No Event,-35501.38671875,-23691.0390625,-24777.646484375,-11560.2548828125,-17250.607421875,-24722.28125,-32973.2265625,-32899.33203125
304483.65494860004,No Event,-35544.83984375,-23691.0390625,-24397.3984375,-11597.470703125,-17285.431640625,-24548.474609375,-33013.5703125,-32946.11328125
304483.65894860006,No Event,-35555.12109375,-23713.345703125,-24083.78125,-11587.45703125,-17286.884765625,-24602.765625,-33023.25,-32955.74609375
304483.6629486001,No Event,-35510.23828125,-23720.05078125,-24428.109375,-11540.3623046875,-17244.19140625,-24799.818359375,-32985.51953125,-32921.50390625
304483.6669486001,No Event,-35498.97265625,-23714.888671875,-24785.939453125,-11532.650390625,-17239.3203125,-24771.0078125,-32973.671875,-32906.796875
304483.6709486001,No Event,-35545.0859375,-23711.53515625,-24505.37890625,-11571.9677734375,-17285.36328125,-24586.0703125,-33010.62109375,-32949.2890625
304483.67360489996,No Event,-35509.859375,-23742.515625,-24357.791015625,-11540.33984375,-17256.5078125,-24786.453125,-32984.359375,-32921.90625
304483.6749486001,No Event,-35553.48828125,-23722.599609375,-24094.7109375,-11579.0751953125,-17291.98046875,-24589.19921875,-33019.25,-32958.5859375
304483.6776049,No Event,-35493.23046875,-23737.396484375,-24777.265625,-11524.9169921875,-17243.38671875,-24810.615234375,-32965.26953125,-32906.21484375
304483.6816049,No Event,-35522.64453125,-23715.78125,-24598.18359375,-11543.201171875,-17263.615234375,-24631.33203125,-32986.859375,-32936.34765625
304483.6856049,No Event,-35548.19140625,-23719.537109375,-24126.517578125,-11549.705078125,-17284.58203125,-24578.26953125,-33006.5546875,-32963.546875
304483.6896049,No Event,-35518.890625,-23741.888671875,-24269.658203125,-11514.9931640625,-17262.185546875,-24765.666015625,-32977.44921875,-32932.58984375
304483.69360490004,No Event,-35482.0078125,-23727.025390625,-24719.353515625,-11483.8125,-17230.46875,-24828.40625,-32940.63671875,-32898.16796875
304483.69760490005,No Event,-35523.984375,-23729.103515625,-24690.09375,-11514.412109375,-17262.05078125,-24678.359375,-32981.65234375,-32940.14453125
304483.70160490007,No Event,-35553.33203125,-23723.3359375,-24186.2421875,-11530.236328125,-17278.322265625,-24577.240234375,-33005.859375,-32973.0703125
304483.7056049001,No Event,-35530.78125,-23742.849609375,-24191.2265625,-11505.60546875,-17250.740234375,-24733.099609375,-32977.80859375,-32946.6953125
304483.7093977,No Event,-35517.75,-23717.302734375,-24731.6015625,-11515.1494140625,-17263.884765625,-24707.88671875,-32973.0234375,-32937.84375
304483.7096049001,No Event,-35490.2109375,-23729.193359375,-24655.248046875,-11472.5693359375,-17230.021484375,-24838.509765625,-32943.5,-32906.3515625
304483.7133977,No Event,-35564.62109375,-23717.48046875,-24248.55859375,-11552.4541015625,-17292.337890625,-24577.21875,-33008.54296875,-32982.45703125
304483.7173977,No Event,-35529.171875,-23711.580078125,-24119.0078125,-11527.4208984375,-17258.318359375,-24688.462890625,-32977.921875,-32944.9296875
304483.7213977,No Event,-35490.4140625,-23713.078125,-24554.7109375,-11514.814453125,-17244.908203125,-24825.12109375,-32948.484375,-32901.85546875
304483.72539770004,No Event,-35509.0078125,-23713.63671875,-24764.8828125,-11551.3369140625,-17274.6796875,-24734.6640625,-32970.8359375,-32917.83984375
304483.72939770005,No Event,-35558.5390625,-23722.822265625,-24351.2421875,-11592.240234375,-17316.478515625,-24581.689453125,-33021.08203125,-32967.90625
304483.73339770007,No Event,-35534.01953125,-23712.33984375,-24092.744140625,-11559.6513671875,-17289.341796875,-24657.9296875,-32995.01953125,-32945.734375
304483.73648849997,No Event,-35541.0625,-23715.71484375,-24083.1328125,-11572.19140625,-17305.97265625,-24623.240234375,-33005.5703125,-32949.78125
304483.7373977001,No Event,-35489.25,-23711.646484375,-24475.025390625,-11530.884765625,-17260.642578125,-24820.47265625,-32955.0078125,-32894.19140625
304483.7404885,No Event,-35498.86328125,-23724.6328125,-24393.888671875,-11544.9892578125,-17270.521484375,-24805.36328125,-32965.94140625,-32909.27734375
304483.7413977001,No Event,-35500.9609375,-23719.314453125,-24786.140625,-11549.2138671875,-17276.1328125,-24768.125,-32969.94140625,-32906.70703125
304483.7444885,No Event,-35494.5703125,-23726.9140625,-24778.5625,-11549.90625,-17273.919921875,-24791.056640625,-32961.69140625,-32900.24609375
304483.7453977001,No Event,-35545.0625,-23715.4921875,-24444.13671875,-11577.890625,-17310.912109375,-24593.2890625,-33009.3671875,-32953.2421875
304483.7484885,No Event,-35536.14453125,-23716.384765625,-24533.185546875,-11580.953125,-17306.150390625,-24607.68359375,-33001.34375,-32940.14453125
304483.75248850003,No Event,-35547.453125,-23715.78125,-24095.203125,-11579.298828125,-17306.75390625,-24591.859375,-33010.53125,-32952.328125
304483.75648850005,No Event,-35510.70703125,-23726.734375,-24303.54296875,-11559.2265625,-17274.791015625,-24778.673828125,-32974.45703125,-32915.58203125
304483.76048850006,No Event,-35495.7109375,-23727.29296875,-24743.537109375,-11551.404296875,-17264.77734375,-24817.23046875,-32959.8828125,-32900.24609375
304483.7644885001,No Event,-35534.04296875,-23718.8671875,-24618.8828125,-11587.1669921875,-17294.23828125,-24646.75390625,-32993.25390625,-32938.515625
304483.7684885001,No Event,-35555.56640625,-23707.736328125,-24128.26171875,-11596.912109375,-17311.134765625,-24569.619140625,-33013.6171875,-32956.55078125
304483.7714166,No Event,-35485.5390625,-23706.572265625,-24685.646484375,-11545.3466796875,-17258.498046875,-24816.001953125,-32952.9765625,-32885.25
304483.7724885001,No Event,-35521.14453125,-23718.7109375,-24226.4296875,-11560.3671875,-17280.447265625,-24745.056640625,-32986.14453125,-32922.7578125
304483.7754166,No Event,-35516.80859375,-23695.173828125,-24679.72265625,-11585.1103515625,-17294.52734375,-24654.287109375,-32986.63671875,-32917.21484375
304483.7794166,No Event,-35558.71875,-23700.8515625,-24195.80859375,-11615.28515625,-17321.3046875,-24559.314453125,-33030.359375,-32964.15234375
304483.7834166,No Event,-35522.51171875,-23700.380859375,-24158.705078125,-11584.685546875,-17285.453125,-24705.091796875,-32996.5390625,-32922.64453125
304483.78741660004,No Event,-35486.078125,-23697.7890625,-24615.998046875,-11554.041015625,-17257.22265625,-24815.533203125,-32962.96875,-32883.640625
304483.79141660006,No Event,-35515.91796875,-23695.978515625,-24744.185546875,-11589.9384765625,-17285.07421875,-24696.3984375,-32993.41015625,-32915.984375
304483.79541660007,No Event,-35556.5078125,-23694.48046875,-24279.58203125,-11621.7001953125,-17310.80078125,-24560.25390625,-33029.640625,-32956.6875
304483.7994166001,No Event,-35544.6171875,-23707.98046875,-24119.857421875,-11594.9228515625,-17295.9140625,-24677.30859375,-33014.421875,-32941.15234375
304483.8034166001,No Event,-35502.59375,-23710.640625,-24551.55859375,-11560.1435546875,-17264.46484375,-24826.841796875,-32974.94921875,-32896.40234375
304483.806306,No Event,-35557.01953125,-23695.419921875,-24368.85546875,-11613.2958984375,-17303.69140625,-24559.1796875,-33018.578125,-32944.59375
304483.8074166001,No Event,-35504.44921875,-23694.078125,-24778.787109375,-11581.9814453125,-17261.4921875,-24729.65625,-32975.4375,-32896.15625
304483.810306,No Event,-35551.96875,-23706.21484375,-24086.53125,-11581.466796875,-17292.13671875,-24638.57421875,-33010.48828125,-32938.1796875
304483.814306,No Event,-35493.69921875,-23695.798828125,-24442.125,-11536.673828125,-17248.818359375,-24803.59765625,-32959.81640625,-32882.14453125
304483.81830600003,No Event,-35489.25,-23689.361328125,-24771.767578125,-11544.6533203125,-17249.421875,-24753.126953125,-32955.6796875,-32878.8359375
304483.82230600005,No Event,-35530.51171875,-23680.466796875,-24454.26171875,-11572.66015625,-17274.703125,-24571.474609375,-32991.734375,-32921.234375
304483.82630600006,No Event,-35539.49609375,-23685.8984375,-24070.125,-11556.2314453125,-17266.990234375,-24597.9375,-32995.33203125,-32932.58984375
304483.8303060001,No Event,-35495.15234375,-23689.697265625,-24354.9296875,-11520.916015625,-17233.6640625,-24780.841796875,-32952.83984375,-32888.2890625
304483.833206,No Event,-35517.81640625,-23706.193359375,-24278.330078125,-11537.3671875,-17258.609375,-24783.94921875,-32982.45703125,-32922.2421875
304483.8343060001,No Event,-35485.1171875,-23689.5859375,-24761.240234375,-11528.2919921875,-17237.75390625,-24780.640625,-32949.19921875,-32880.890625
304483.837206,No Event,-35492.6015625,-23697.654296875,-24723.0859375,-11525.029296875,-17244.662109375,-24815.578125,-32957.15625,-32894.2578125
304483.8383060001,No Event,-35528.140625,-23688.423828125,-24557.615234375,-11565.9326171875,-17271.7734375,-24611.349609375,-32990.52734375,-32926.4453125
304483.841206,No Event,-35528.25390625,-23688.53515625,-24638.57421875,-11562.04296875,-17275.193359375,-24643.40234375,-32990.81640625,-32932.94921875
304483.8423060001,No Event,-35555.48046875,-23700.42578125,-24108.79296875,-11573.263671875,-17286.99609375,-24599.703125,-33016.140625,-32958.54296875
304483.845206,No Event,-35563.0546875,-23692.625,-24150.27734375,-11584.439453125,-17298.73046875,-24571.7421875,-33017.7734375,-32968.01953125
304483.84920600004,No Event,-35527.515625,-23696.470703125,-24200.994140625,-11548.0068359375,-17270.96875,-24744.029296875,-32984.11328125,-32931.31640625
304483.85320600006,No Event,-35494.703125,-23689.98828125,-24663.763671875,-11541.7705078125,-17268.578125,-24823.646484375,-32960.59765625,-32898.9296875
304483.8572060001,No Event,-35523.8046875,-23684.01953125,-24705.986328125,-11587.3681640625,-17303.759765625,-24675.677734375,-32988.515625,-32927.29296875
304483.8612060001,No Event,-35557.78125,-23681.248046875,-24223.189453125,-11614.591796875,-17333.46484375,-24567.40625,-33018.3984375,-32959.03125
304483.8652060001,No Event,-35538.53515625,-23696.24609375,-24144.376953125,-11598.0517578125,-17329.3515625,-24715.3515625,-33005.48046875,-32939.00390625
304483.86772589997,No Event,-35530.9140625,-23706.6171875,-24778.18359375,-11630.08203125,-17355.7265625,-24734.685546875,-33004.85546875,-32926.62109375
304483.8692060001,No Event,-35510.91015625,-23707.51171875,-24603.794921875,-11595.5263671875,-17323.25,-24844.478515625,-32984.71484375,-32908.2734375
304483.8717259,No Event,-35570.20703125,-23702.794921875,-24334.92578125,-11668.1689453125,-17393.79296875,-24588.6171875,-33044.86328125,-32962.87890625
304483.8757259,No Event,-35561.828125,-23718.21875,-24128.462890625,-11662.603515625,-17398.375,-24706.8359375,-33043.58984375,-32957.46875
304483.8797259,No Event,-35523.6953125,-23724.6328125,-24534.75,-11648.8798828125,-17392.763671875,-24857.53125,-33010.75390625,-32920.34375
304483.8837259,No Event,-35532.0078125,-23727.337890625,-24824.787109375,-11678.541015625,-17413.1484375,-24784.216796875,-33021.88671875,-32930.421875
304483.88772590004,No Event,-35579.015625,-23732.076171875,-24458.306640625,-11729.48046875,-17461.40625,-24630.013671875,-33071.6640625,-32983.7109375
304483.89172590006,No Event,-35584.51171875,-23747.41015625,-24135.90625,-11729.681640625,-17471.375,-24702.521484375,-33081.85546875,-32991.95703125
304483.8957259001,No Event,-35545.51171875,-23758.2734375,-24478.84765625,-11706.6142578125,-17454.365234375,-24882.005859375,-33051.1875,-32953.87109375
304483.8997259001,No Event,-35538.9609375,-23753.17578125,-24852.8828125,-11721.74609375,-17463.552734375,-24846.177734375,-33045.01953125,-32950.60546875
304483.9037259001,No Event,-35585.80859375,-23748.05859375,-24572.76953125,-11743.740234375,-17501.662109375,-24664.255859375,-33085.20703125,-33000.16015625
304483.9096031,No Event,-35601.1875,-23752.6171875,-24154.904296875,-11755.85546875,-17491.380859375,-24683.58984375,-33101.7265625,-33013.90625
304483.9136031,No Event,-35551.1640625,-23747.5,-24392.99609375,-11729.79296875,-17447.078125,-24862.203125,-33059.4140625,-32962.67578125
304483.9176031,No Event,-35530.82421875,-23738.044921875,-24817.029296875,-11721.947265625,-17478.55078125,-24851.162109375,-33040.4375,-32940.8828125
304483.9216031,No Event,-35577.49609375,-23737.888671875,-24653.50390625,-11758.2919921875,-17528.1484375,-24672.83984375,-33083.59765625,-32988.91796875
304483.92560310004,No Event,-35604.29296875,-23745.30859375,-24180.296875,-11767.6123046875,-17546.455078125,-24654.287109375,-33113.1484375,-33019.80859375
304483.92960310006,No Event,-35564.8203125,-23750.60546875,-24303.56640625,-11734.576171875,-17517.375,-24836.453125,-33079.375,-32981.25
304483.9336031001,No Event,-35541.6640625,-23752.685546875,-24767.095703125,-11727.6923828125,-17506.84765625,-24885.203125,-33062.5,-32958.25
304483.9367589,No Event,-35546.29296875,-23753.421875,-24700.95703125,-11703.060546875,-17497.81640625,-24897.5625,-33059.3046875,-32961.3125
304483.9376031001,No Event,-35581.51953125,-23753.556640625,-24740.744140625,-11766.4951171875,-17540.486328125,-24724.404296875,-33098.55078125,-32997.74609375
304483.9407589,No Event,-35569.828125,-23747.431640625,-24805.33984375,-11728.33984375,-17512.5703125,-24754.109375,-33080.71484375,-32984.15625
304483.9416031001,No Event,-35611.06640625,-23752.7734375,-24251.017578125,-11771.412109375,-17549.986328125,-24656.701171875,-33125.44140625,-33026.46875
304483.94475890003,No Event,-35607.53515625,-23740.81640625,-24325.716796875,-11730.1064453125,-17511.49609375,-24636.048828125,-33106.44140625,-33021.39453125
304483.9456031001,No Event,-35577.47265625,-23754.3828125,-24236.755859375,-11727.22265625,-17515.654296875,-24815.599609375,-33088.828125,-32991.80078125
304483.94875890005,No Event,-35587.57421875,-23742.42578125,-24165.185546875,-11711.8896484375,-17485.76953125,-24764.34765625,-33083.2421875,-33000.203125
304483.95275890006,No Event,-35534.53515625,-23730.220703125,-24593.4453125,-11685.4697265625,-17461.8984375,-24874.048828125,-33030.625,-32942.1796875
304483.9567589001,No Event,-35540.59375,-23722.15234375,-24815.912109375,-11699.1044921875,-17472.515625,-24756.27734375,-33038.1796875,-32944.97265625
304483.9607589001,No Event,-35585.1171875,-23722.62109375,-24395.96875,-11730.53125,-17492.810546875,-24611.841796875,-33078.19140625,-32987.12890625
304483.9647589001,No Event,-35575.796875,-23729.103515625,-24122.830078125,-11706.48046875,-17471.486328125,-24710.390625,-33072.66796875,-32978.32421875
304483.9687589001,No Event,-35535.62890625,-23734.087890625,-24500.8203125,-11655.33984375,-17457.986328125,-24864.908203125,-33037.48828125,-32941.21875
304483.97119919996,No Event,-35572.66796875,-23720.251953125,-24489.845703125,-11698.43359375,-17464.22265625,-24625.23046875,-33063.328125,-32986.94921875
304483.97275890014,No Event,-35534.06640625,-23729.529296875,-24827.802734375,-11678.2275390625,-17452.017578125,-24791.705078125,-33032.68359375,-32943.41015625
304483.9751992,No Event,-35570.8125,-23715.22265625,-24117.509765625,-11678.2724609375,-17450.365234375,-24675.923828125,-33059.9296875,-32985.33984375
304483.9791992,No Event,-35525.34765625,-23712.451171875,-24396.52734375,-11628.2939453125,-17408.791015625,-24844.724609375,-33022.55859375,-32941.1953125
304483.9831992,No Event,-35512.31640625,-23702.169921875,-24795.482421875,-11618.1015625,-17400.587890625,-24807.375,-33007.19921875,-32929.3046875
304483.9871992,No Event,-35556.41796875,-23695.84375,-24574.6484375,-11641.90625,-17427.7890625,-24628.91796875,-33040.39453125,-32973.5390625
304483.99119920004,No Event,-35567.8828125,-23689.83203125,-24118.158203125,-11633.1220703125,-17432.83984375,-24633.96875,-33048.57421875,-32985.765625
304483.99519920006,No Event,-35530.71484375,-23693.5859375,-24293.75390625,-11586.9658203125,-17400.072265625,-24816.13671875,-33016.1640625,-32950.203125
304483.99731809995,No Event,-35519.91796875,-23686.814453125,-24210.873046875,-11544.4970703125,-17344.1484375,-24780.955078125,-32999.78125,-32935.9453125
304483.9991992001,No Event,-35507.4453125,-23693.05078125,-24746.30859375,-11573.3759765625,-17381.54296875,-24823.982421875,-32994.73046875,-32927.71875
304484.00131809997,No Event,-35490.078125,-23691.732421875,-24685.958984375,-11526.8173828125,-17327.228515625,-24830.5078125,-32971.328125,-32906.70703125
304484.0031992001,No Event,-35536.546875,-23686.880859375,-24656.455078125,-11593.7158203125,-17389.076171875,-24652.9453125,-33018.82421875,-32958.2265625
304484.0053181,No Event,-35520.87890625,-23698.236328125,-24746.041015625,-11555.2255859375,-17348.060546875,-24682.5390625,-32998.8203125,-32934.82421875
304484.0071992001,No Event,-35554.65234375,-23680.890625,-24161.7890625,-11582.025390625,-17379.107421875,-24610.8125,-33032.234375,-32973.00390625
304484.0093181,No Event,-35554.7421875,-23699.8671875,-24256.939453125,-11560.4560546875,-17355.794921875,-24601.939453125,-33028.1875,-32968.2421875
304484.0133181,No Event,-35530.98046875,-23702.6171875,-24166.951171875,-11525.7216796875,-17339.03125,-24752.724609375,-33000.5390625,-32945.12890625
304484.0173181,No Event,-35491.484375,-23699.978515625,-24614.634765625,-11499.3017578125,-17310.330078125,-24844.455078125,-32966.74609375,-32907.84765625
304484.02131810004,No Event,-35500.6953125,-23690.30078125,-24779.859375,-11518.0107421875,-17313.03515625,-24704.890625,-32973.2265625,-32916.83203125
304484.02531810006,No Event,-35539.87890625,-23689.138671875,-24319.837890625,-11536.0927734375,-17338.271484375,-24582.783203125,-33009.03515625,-32955.90234375
304484.0293181001,No Event,-35518.57421875,-23685.451171875,-24096.208984375,-11492.5068359375,-17315.6953125,-24701.740234375,-32987.578125,-32935.7890625
304484.0333181001,No Event,-35491.93359375,-23697.654296875,-24496.572265625,-11480.9287109375,-17291.421875,-24833.1015625,-32964.015625,-32909.76953125
304484.120188,No Event,-35497.54296875,-23700.783203125,-24794.142578125,-11497.15625,-17288.314453125,-24743.134765625,-32972.37890625,-32918.10546875
304484.124188,No Event,-35533.953125,-23689.138671875,-24407.546875,-11518.994140625,-17304.5859375,-24592.6640625,-33005.078125,-32952.75390625
304484.128188,No Event,-35553.48828125,-23704.091796875,-24076.71875,-11504.3984375,-17297.701171875,-24686.47265625,-33016.140625,-32969.58203125
304484.132188,No Event,-35494.03515625,-23695.888671875,-24408.462890625,-11476.1904296875,-17269.94140625,-24830.732421875,-32974.14453125,-32915.4453125
304484.13618800003,No Event,-35491.93359375,-23699.30859375,-24789.068359375,-11498.2294921875,-17285.408203125,-24767.6328125,-32975.55078125,-32912.2265625
304484.14018800005,No Event,-35535.7421875,-23694.435546875,-24513.494140625,-11515.216796875,-17318.556640625,-24610.142578125,-33007.40234375,-32956.1953125
304484.14418800006,No Event,-35546.8515625,-23694.94921875,-24086.552734375,-11511.2822265625,-17311.470703125,-24648.51953125,-33013.125,-32970.07421875
304484.1481880001,No Event,-35520.2734375,-23707.421875,-24313.22265625,-11492.216796875,-17291.33203125,-24818.505859375,-32989.5,-32939.69921875
304484.1521880001,No Event,-35512.20703125,-23713.748046875,-24759.67578125,-11510.43359375,-17296.94140625,-24804.490234375,-32981.25,-32930.87109375
304484.1561880001,No Event,-35531.94140625,-23693.54296875,-24605.650390625,-11541.345703125,-17305.748046875,-24630.572265625,-32998.26171875,-32952.328125
304484.1572736,No Event,-35544.52734375,-23689.048828125,-24114.828125,-11547.1123046875,-17313.59375,-24621.33984375,-33018.17578125,-32968.46484375
304484.1612736,No Event,-35528.09765625,-23714.486328125,-24239.841796875,-11530.5048828125,-17302.642578125,-24808.693359375,-33007.06640625,-32947.90234375
304484.1652736,No Event,-35508.18359375,-23713.435546875,-24706.478515625,-11522.837890625,-17285.029296875,-24824.71875,-32983.30859375,-32928.0078125
304484.16927360004,No Event,-35521.7734375,-23690.859375,-24676.974609375,-11543.9609375,-17294.05859375,-24648.185546875,-32992.40234375,-32940.52734375
304484.17327360006,No Event,-35549.9140625,-23688.6015625,-24173.724609375,-11554.4208984375,-17312.54296875,-24594.2734375,-33017.90625,-32965.8046875
304484.1772736001,No Event,-35521.52734375,-23691.240234375,-24150.099609375,-11526.458984375,-17295.310546875,-24760.546875,-32994.83984375,-32938.46875
304484.1812736001,No Event,-35503.3984375,-23716.005859375,-24650.083984375,-11520.6259765625,-17277.7421875,-24836.05078125,-32981.49609375,-32917.16796875
304484.1839974,No Event,-35484.421875,-23696.447265625,-24569.10546875,-11503.236328125,-17249.2890625,-24841.4375,-32968.93359375,-32906.4375
304484.1852736001,No Event,-35516.49609375,-23705.34375,-24765.509765625,-11550.2412109375,-17285.654296875,-24687.92578125,-32996.78515625,-32931.09375
304484.1879974,No Event,-35500.8515625,-23704.337890625,-24815.48828125,-11517.5185546875,-17259.2578125,-24729.92578125,-32977.83203125,-32925.37109375
304484.1892736001,No Event,-35544.99609375,-23692.693359375,-24276.408203125,-11557.4384765625,-17299.580078125,-24590.361328125,-33015.78515625,-32957.625
304484.1919974,No Event,-35548.1015625,-23711.06640625,-24392.212890625,-11548.2080078125,-17290.236328125,-24611.326171875,-33012.20703125,-32971.1484375
304484.19327360013,No Event,-35529.9765625,-23702.05859375,-24130.83203125,-11533.6123046875,-17285.251953125,-24740.833984375,-33002.0390625,-32946.11328125
304484.19599740003,No Event,-35540.97265625,-23714.015625,-24111.162109375,-11537.0986328125,-17293.208984375,-24726.21484375,-33010.26171875,-32965.8046875
304484.19999740005,No Event,-35501.03125,-23717.861328125,-24496.6171875,-11509.5615234375,-17269.830078125,-24861.287109375,-32975.4375,-32926.265625
304484.20399740007,No Event,-35496.26953125,-23716.51953125,-24841.884765625,-11510.544921875,-17261.15625,-24770.806640625,-32968.3984375,-32920.96875
304484.2079974001,No Event,-35530.46875,-23709.58984375,-24491.38671875,-11526.0126953125,-17279.060546875,-24618.703125,-32996.8515625,-32954.29296875
304484.2119974001,No Event,-35548.7265625,-23726.041015625,-24119.38671875,-11518.6806640625,-17287.666015625,-24708.400390625,-33016.36328125,-32973.2265625
304484.2159974001,No Event,-35523.3828125,-23740.927734375,-24405.109375,-11492.1494140625,-17265.58203125,-24865.734375,-32987.46484375,-32948.66015625
304484.2199974001,No Event,-35511.6484375,-23741.77734375,-24837.884765625,-11492.8642578125,-17255.390625,-24815.130859375,-32971.70703125,-32933.9765625
304484.22580029996,No Event,-35548.796875,-23738.6484375,-24617.5859375,-11523.0390625,-17285.095703125,-24657.908203125,-33008.23046875,-32970.85546875
304484.2298003,No Event,-35569.828125,-23744.01171875,-24160.3359375,-11535.9814453125,-17306.732421875,-24698.095703125,-33034.89453125,-32993.296875
304484.2338003,No Event,-35541.64453125,-23758.763671875,-24337.384765625,-11508.5556640625,-17287.576171875,-24872.171875,-33010.93359375,-32965.89453125
304484.2378003,No Event,-35510.26171875,-23749.890625,-24803.306640625,-11498.162109375,-17263.458984375,-24848.30078125,-32975.59375,-32928.546875
304484.2418003,No Event,-35517.32421875,-23715.40234375,-24679.9921875,-11503.392578125,-17259.748046875,-24660.701171875,-32980.35546875,-32933.75390625
304484.24580030004,No Event,-35527.13671875,-23691.955078125,-24144.310546875,-11491.8369140625,-17262.720703125,-24626.90625,-32987.91015625,-32945.51171875
304484.24980030005,No Event,-35514.015625,-23711.423828125,-24202.111328125,-11486.494140625,-17262.07421875,-24806.369140625,-32976.69140625,-32932.703125
304484.25380030007,No Event,-35508.29296875,-23736.166015625,-24706.61328125,-11496.44140625,-17265.58203125,-24857.912109375,-32973.18359375,-32928.2109375
304484.257307,No Event,-35544.90625,-23729.484375,-24144.287109375,-11516.69140625,-17281.67578125,-24801.943359375,-33008.1171875,-32962.4765625
304484.2578003001,No Event,-35529.91015625,-23730.556640625,-24751.205078125,-11524.4033203125,-17275.796875,-24703.28125,-32992.5625,-32948.05859375
304484.261307,No Event,-35520.83203125,-23741.62109375,-24619.6875,-11507.3037109375,-17261.626953125,-24875.412109375,-32984.24609375,-32939.65234375
304484.2618003001,No Event,-35556.05859375,-23717.033203125,-24228.46484375,-11530.080078125,-17288.380859375,-24636.337890625,-33015.1796875,-32974.07421875
304484.265307,No Event,-35529.953125,-23743.654296875,-24807.955078125,-11517.630859375,-17261.6484375,-24743.60546875,-32990.97265625,-32951.87890625
304484.26930700004,No Event,-35563.34765625,-23741.93359375,-24336.490234375,-11536.607421875,-17289.7890625,-24649.97265625,-33026.08984375,-32987.6875
304484.27330700005,No Event,-35548.4375,-23734.6015625,-24104.947265625,-11512.1318359375,-17280.625,-24776.86328125,-33008.4296875,-32975.796875
304484.27730700007,No Event,-35534.6015625,-23761.71484375,-24538.080078125,-11505.5830078125,-17272.51171875,-24898.033203125,-32997.25390625,-32964.93359375
304484.2813070001,No Event,-35518.95703125,-23741.666015625,-24820.71875,-11493.9599609375,-17251.92578125,-24773.0859375,-32980.421875,-32944.16796875
304484.2853070001,No Event,-35543.65625,-23715.291015625,-24406.0703125,-11518.033203125,-17277.65234375,-24624.0234375,-33000.875,-32970.6328125
304484.2893070001,No Event,-35566.90234375,-23741.330078125,-24093.728515625,-11540.4072265625,-17303.08984375,-24737.837890625,-33028.97265625,-32989.7890625
304484.2922953,No Event,-35511.9375,-23736.859375,-24835.626953125,-11526.7275390625,-17272.220703125,-24784.91015625,-32978.12109375,-32926.82421875
304484.29330700013,No Event,-35528.65625,-23752.818359375,-24445.34375,-11508.82421875,-17271.037109375,-24867.74609375,-32988.76171875,-32943.85546875
304484.2962953,No Event,-35560.8671875,-23742.11328125,-24541.9921875,-11561.283203125,-17307.984375,-24648.38671875,-33027.05078125,-32977.02734375
304484.3002953,No Event,-35571.16796875,-23740.50390625,-24094.912109375,-11549.548828125,-17305.435546875,-24710.435546875,-33032.83984375,-32992.6484375
304484.30429530004,No Event,-35524.56640625,-23723.470703125,-24303.6328125,-11506.4765625,-17270.96875,-24828.7421875,-32975.4375,-32942.203125
304484.30829530006,No Event,-35502.4375,-23714.732421875,-24748.74609375,-11494.0712890625,-17249.4453125,-24775.322265625,-32951.45703125,-32919.0
304484.3122953001,No Event,-35552.10546875,-23740.32421875,-24620.111328125,-11547.2236328125,-17290.9296875,-24639.556640625,-33002.6640625,-32963.75
304484.3162953001,No Event,-35588.4921875,-23762.541015625,-24164.494140625,-11570.3583984375,-17320.724609375,-24675.87890625,-33042.828125,-33000.83203125
304484.3202953001,No Event,-35566.23046875,-23763.302734375,-24278.93359375,-11539.3564453125,-17300.40625,-24837.884765625,-33024.7265625,-32980.6484375
304484.3242953001,No Event,-35525.1015625,-23737.44140625,-24723.421875,-11511.6845703125,-17272.01953125,-24824.294921875,-32978.94921875,-32950.62890625
304484.3257438,No Event,-35555.72265625,-23702.103515625,-24153.294921875,-11499.212890625,-17272.154296875,-24614.0546875,-32993.05078125,-32978.34375
304484.32829530013,No Event,-35548.484375,-23731.271484375,-24692.6640625,-11514.0986328125,-17270.455078125,-24664.837890625,-32994.57421875,-32964.93359375
304484.3297438,No Event,-35557.69140625,-23740.48046875,-24161.119140625,-11520.5810546875,-17287.599609375,-24797.046875,-33006.77734375,-32979.70703125
304484.3337438,No Event,-35527.13671875,-23746.068359375,-24664.099609375,-11510.09765625,-17261.671875,-24834.396484375,-32982.50390625,-32940.45703125
304484.3377438,No Event,-35561.35546875,-23777.71875,-24822.751953125,-11559.607421875,-17278.681640625,-24709.048828125,-33011.42578125,-32971.21484375
304484.34174380003,No Event,-35599.46875,-23782.724609375,-24347.642578125,-11553.6611328125,-17296.875,-24638.26171875,-33035.609375,-32993.3671875
304484.34574380005,No Event,-35548.125,-23712.33984375,-24109.462890625,-11513.2939453125,-17271.416015625,-24747.78515625,-33000.36328125,-32962.4765625
304484.34974380006,No Event,-35524.6796875,-23728.455078125,-24567.2265625,-11489.9365234375,-17246.404296875,-24842.443359375,-32984.42578125,-32939.4765625
304484.3537438001,No Event,-35504.44921875,-23701.25390625,-24780.037109375,-11483.8125,-17217.615234375,-24688.328125,-32949.69140625,-32916.3203125
304484.3577438001,No Event,-35549.35546875,-23711.46875,-24337.49609375,-11517.5634765625,-17252.841796875,-24582.984375,-32990.21484375,-32953.51171875
304484.36028039997,No Event,-35516.38671875,-23710.931640625,-24448.47265625,-11504.263671875,-17229.529296875,-24822.55078125,-32969.875,-32929.73046875
304484.3617438001,No Event,-35537.796875,-23683.796875,-24055.818359375,-11508.779296875,-17249.869140625,-24706.634765625,-32992.359375,-32956.28515625
304484.3642804,No Event,-35508.62890625,-23718.375,-24823.982421875,-11512.2431640625,-17232.45703125,-24733.2109375,-32969.6953125,-32925.55078125
304484.3682804,No Event,-35541.375,-23694.7265625,-24449.03125,-11526.99609375,-17244.974609375,-24590.78515625,-32980.3125,-32956.8203125
304484.3722804,No Event,-35538.19921875,-23687.306640625,-24040.888671875,-11515.775390625,-17240.2578125,-24661.70703125,-32973.71875,-32959.32421875
304484.3762804,No Event,-35525.328125,-23715.3359375,-24353.208984375,-11501.9619140625,-17230.513671875,-24802.859375,-32961.89453125,-32938.2890625
304484.38028040004,No Event,-35486.8828125,-23670.744140625,-24750.466796875,-11460.6337890625,-17192.08984375,-24717.072265625,-32920.609375,-32898.39453125
304484.38428040006,No Event,-35479.01171875,-23625.146484375,-24467.873046875,-11455.4697265625,-17176.66796875,-24536.001953125,-32905.61328125,-32892.89453125
304484.3882804001,No Event,-35545.421875,-23697.900390625,-24072.5390625,-11535.265625,-17241.419921875,-24634.9296875,-32987.734375,-32955.0546875
304484.3922804001,No Event,-35540.8828125,-23728.1875,-24286.33203125,-11529.8564453125,-17240.7265625,-24805.048828125,-32981.16015625,-32946.71875
304484.39555149997,No Event,-35523.984375,-23711.736328125,-24656.56640625,-11547.291015625,-17220.09765625,-24619.486328125,-32973.3828125,-32942.8515625
304484.3962804001,No Event,-35477.15625,-23680.734375,-24714.033203125,-11463.583984375,-17180.712890625,-24747.78515625,-32924.74609375,-32894.078125
304484.3995515,No Event,-35525.75,-23679.572265625,-24087.3125,-11499.279296875,-17210.53125,-24591.009765625,-32956.91015625,-32943.09765625
304484.4035515,No Event,-35486.12109375,-23664.955078125,-24106.87109375,-11452.05078125,-17192.3359375,-24711.619140625,-32916.9453125,-32893.0078125
304484.4075515,No Event,-35460.91015625,-23673.515625,-24625.6328125,-11475.36328125,-17186.009765625,-24735.244140625,-32910.39453125,-32871.28125
304484.41155150003,No Event,-35503.7109375,-23709.478515625,-24696.2421875,-11514.1884765625,-17210.41796875,-24608.466796875,-32943.34375,-32910.6875
304484.41555150005,No Event,-35514.73046875,-23668.083984375,-24150.0546875,-11489.4892578125,-17214.0625,-24562.82421875,-32950.359375,-32926.62109375
304484.41955150006,No Event,-35527.78515625,-23712.25,-24098.734375,-11507.6171875,-17231.40625,-24734.037109375,-32967.75,-32939.453125
304484.4211246,No Event,-35517.0546875,-23686.904296875,-24043.63671875,-11501.9169921875,-17216.408203125,-24683.1875,-32945.95703125,-32932.12109375
304484.4235515001,No Event,-35521.81640625,-23747.25390625,-24606.69921875,-11496.396484375,-17212.498046875,-24804.333984375,-32953.421875,-32928.61328125
304484.4251246,No Event,-35447.72265625,-23643.2734375,-24414.51953125,-11434.392578125,-17154.60546875,-24731.466796875,-32884.3125,-32871.234375
304484.4275515001,No Event,-35501.09765625,-23693.498046875,-24730.841796875,-11473.150390625,-17194.16796875,-24642.529296875,-32934.84765625,-32908.25
304484.4291246,No Event,-35458.3828125,-23664.75390625,-24736.720703125,-11460.7451171875,-17161.46875,-24633.6796875,-32899.6875,-32874.58984375
304484.4315515001,No Event,-35534.6015625,-23701.275390625,-24262.505859375,-11515.41796875,-17226.712890625,-24573.28515625,-32976.37890625,-32945.77734375
304484.43312460004,No Event,-35518.41796875,-23687.796875,-24351.533203125,-11513.71875,-17211.201171875,-24553.79296875,-32961.42578125,-32930.2421875
304484.43712460005,No Event,-35529.91015625,-23703.0859375,-24046.521484375,-11515.41796875,-17223.71875,-24669.53125,-32972.62109375,-32939.296875
304484.44112460007,No Event,-35508.5625,-23717.458984375,-24432.37890625,-11505.60546875,-17214.0625,-24802.814453125,-32961.1328125,-32927.671875
304484.4451246001,No Event,-35478.56640625,-23681.986328125,-24783.123046875,-11476.7490234375,-17185.09375,-24687.076171875,-32904.91796875,-32889.609375
304484.4491246001,No Event,-35502.37109375,-23670.966796875,-24466.666015625,-11507.9072265625,-17208.5859375,-24555.73828125,-32936.90625,-32913.75
304484.4531246001,No Event,-35530.01953125,-23700.359375,-24070.056640625,-11518.30078125,-17226.310546875,-24643.603515625,-32967.01171875,-32942.4921875
304484.4570298,No Event,-35467.75,-23698.080078125,-24791.861328125,-11486.986328125,-17186.234375,-24722.392578125,-32915.3359375,-32886.8828125
304484.4571246001,No Event,-35484.33203125,-23690.859375,-24316.08203125,-11474.603515625,-17196.0234375,-24765.93359375,-32926.48828125,-32898.81640625
304484.4610298,No Event,-35499.51171875,-23701.4765625,-24615.1484375,-11505.5380859375,-17206.015625,-24589.734375,-32948.57421875,-32925.21484375
304484.4650298,No Event,-35522.109375,-23701.142578125,-24123.1875,-11513.361328125,-17234.357421875,-24629.677734375,-32973.203125,-32942.60546875
304484.46902980004,No Event,-35496.1796875,-23714.240234375,-24277.146484375,-11513.80859375,-17224.455078125,-24785.916015625,-32958.20703125,-32919.78515625
304484.47302980005,No Event,-35481.515625,-23739.384765625,-24802.2109375,-11509.046875,-17220.65625,-24785.693359375,-32955.546875,-32906.015625
304484.47702980007,No Event,-35470.3203125,-23689.5625,-24705.0703125,-11467.31640625,-17183.9765625,-24609.6953125,-32930.01953125,-32901.6796875
304484.4810298001,No Event,-35501.43359375,-23696.291015625,-24202.4921875,-11498.7431640625,-17214.8671875,-24607.416015625,-32961.11328125,-32928.45703125
304484.4850298001,No Event,-35485.4296875,-23704.60546875,-24208.4375,-11497.2236328125,-17218.0859375,-24760.748046875,-32950.6953125,-32913.32421875
304484.4890298001,No Event,-35456.1484375,-23698.59375,-24683.634765625,-11494.5185546875,-17199.51171875,-24774.5390625,-32923.13671875,-32884.53515625
304484.4926542,No Event,-35517.16796875,-23711.22265625,-24290.244140625,-11528.716796875,-17224.56640625,-24612.578125,-32976.17578125,-32940.99609375
304484.4930298001,No Event,-35493.4296875,-23723.158203125,-24799.23828125,-11532.5166015625,-17219.873046875,-24662.400390625,-32958.96484375,-32917.81640625
304484.4966542,No Event,-35497.85546875,-23701.25390625,-24153.943359375,-11499.3466796875,-17207.7578125,-24743.42578125,-32949.17578125,-32921.3046875
304484.50065420003,No Event,-35476.265625,-23711.35546875,-24636.896484375,-11503.34765625,-17196.404296875,-24804.87109375,-32927.49609375,-32893.96875
304484.50465420005,No Event,-35498.66015625,-23727.986328125,-24878.095703125,-11547.537109375,-17213.94921875,-24701.181640625,-32952.3515625,-32914.08203125
304484.50865420006,No Event,-35541.75390625,-23741.62109375,-24435.306640625,-11545.5478515625,-17241.5546875,-24634.37109375,-32991.8671875,-32955.2109375
304484.5126542001,No Event,-35498.6171875,-23691.216796875,-24143.03515625,-11491.0537109375,-17209.568359375,-24729.052734375,-32949.3984375,-32917.75
304484.5166542001,No Event,-35458.046875,-23688.46875,-24539.935546875,-11487.6123046875,-17188.8046875,-24798.208984375,-32911.82421875,-32879.34765625
304484.5206542001,No Event,-35482.43359375,-23720.810546875,-24883.90625,-11524.73828125,-17201.544921875,-24718.056640625,-32930.53515625,-32897.9453125
304484.5246542001,No Event,-35514.44140625,-23706.439453125,-24498.2265625,-11543.267578125,-17219.42578125,-24611.37109375,-32960.46484375,-32933.93359375
304484.52865420014,No Event,-35507.80078125,-23694.94921875,-24143.103515625,-11526.50390625,-17218.576171875,-24701.181640625,-32953.84765625,-32926.37890625
304484.6027594,No Event,-35489.54296875,-23715.9375,-24479.072265625,-11508.0634765625,-17217.99609375,-24822.3046875,-32937.0390625,-32909.90234375
304484.6067594,No Event,-35457.1328125,-23695.46484375,-24878.900390625,-11489.66796875,-17177.31640625,-24733.748046875,-32899.01953125,-32884.01953125
304484.6107594,No Event,-35473.58203125,-23659.701171875,-24568.9921875,-11509.1142578125,-17195.419921875,-24582.380859375,-32917.8828125,-32894.59375
304484.6147594,No Event,-35523.29296875,-23699.130859375,-24172.763671875,-11530.21484375,-17249.734375,-24680.259765625,-32967.79296875,-32931.5625
304484.61875940004,No Event,-35483.19140625,-23696.849609375,-24393.28515625,-11490.115234375,-17207.06640625,-24810.705078125,-32935.00390625,-32896.76171875
304484.62275940005,No Event,-35467.94921875,-23697.095703125,-24848.791015625,-11497.1337890625,-17171.50390625,-24764.32421875,-32920.921875,-32887.77734375
304484.62675940007,No Event,-35478.296875,-23672.822265625,-24671.9453125,-11518.703125,-17191.666015625,-24606.140625,-32927.91796875,-32895.93359375
304484.6307594001,No Event,-35492.2890625,-23664.619140625,-24168.896484375,-11512.1767578125,-17208.876953125,-24617.80859375,-32938.671875,-32911.4921875
304484.6347594001,No Event,-35479.59375,-23688.177734375,-24295.609375,-11492.8642578125,-17206.283203125,-24777.220703125,-32926.4453125,-32897.09765625
304484.6387594001,No Event,-35472.8671875,-23708.361328125,-24801.09375,-11490.16015625,-17206.08203125,-24782.09375,-32918.17578125,-32888.46875
304484.63925029995,No Event,-35502.59375,-23711.6015625,-24772.236328125,-11523.0615234375,-17226.35546875,-24645.48046875,-32949.84765625,-32921.6171875
304484.64325029997,No Event,-35524.72265625,-23707.376953125,-24262.572265625,-11548.8330078125,-17231.5859375,-24634.21484375,-32971.66015625,-32946.62890625
304484.6472503,No Event,-35493.25,-23705.388671875,-24242.724609375,-11507.9521484375,-17227.427734375,-24766.828125,-32945.28515625,-32913.2578125
304484.6512503,No Event,-35470.5625,-23720.275390625,-24740.185546875,-11497.55859375,-17224.41015625,-24799.662109375,-32923.203125,-32889.00390625
304484.6552503,No Event,-35485.2734375,-23715.8046875,-24844.634765625,-11517.83203125,-17235.138671875,-24663.228515625,-32935.69921875,-32903.421875
304484.6592503,No Event,-35515.4453125,-23710.931640625,-24340.40234375,-11547.6484375,-17249.109375,-24611.52734375,-32962.765625,-32935.875
304484.66325030004,No Event,-35486.90234375,-23703.599609375,-24197.685546875,-11530.03515625,-17234.40234375,-24736.294921875,-32935.9453125,-32907.35546875
304484.66725030006,No Event,-35455.7890625,-23710.841796875,-24661.08203125,-11519.10546875,-17211.3125,-24795.37109375,-32903.0625,-32872.84375
304484.66964439995,No Event,-35491.1953125,-23708.986328125,-24187.29296875,-11550.8671875,-17246.13671875,-24711.619140625,-32943.4765625,-32908.67578125
304484.6712503001,No Event,-35462.5390625,-23707.421875,-24872.91015625,-11545.8828125,-17211.982421875,-24671.765625,-32906.10546875,-32878.8359375
304484.67364439997,No Event,-35445.53125,-23700.42578125,-24594.787109375,-11547.537109375,-17202.6171875,-24796.779296875,-32900.24609375,-32861.98046875
304484.6752503001,No Event,-35488.0,-23694.302734375,-24413.849609375,-11560.232421875,-17234.849609375,-24579.990234375,-32935.1171875,-32906.21484375
304484.6776444,No Event,-35460.28125,-23716.33984375,-24947.138671875,-11599.728515625,-17226.578125,-24716.380859375,-32914.44140625,-32863.45703125
304484.6816444,No Event,-35480.421875,-23689.853515625,-24578.224609375,-11614.0556640625,-17238.134765625,-24596.060546875,-32932.8828125,-32880.15234375
304484.6856444,No Event,-35483.88671875,-23684.69140625,-24237.76171875,-11596.755859375,-17226.130859375,-24682.96484375,-32934.9375,-32882.2109375
304484.68964440003,No Event,-35452.4140625,-23690.412109375,-24565.751953125,-11553.0576171875,-17210.44140625,-24807.173828125,-32910.26171875,-32849.375
304484.69364440005,No Event,-35455.1640625,-23697.587890625,-24961.490234375,-11575.9462890625,-17234.982421875,-24748.611328125,-32912.65234375,-32855.56640625
304484.69764440006,No Event,-35494.48046875,-23688.19921875,-24659.78515625,-11611.5751953125,-17264.8671875,-24613.49609375,-32943.4765625,-32891.59765625
304484.7016444001,No Event,-35504.16015625,-23678.029296875,-24203.609375,-11607.57421875,-17264.576171875,-24656.298828125,-32949.62109375,-32899.93359375
304484.7035727,No Event,-35449.53125,-23665.267578125,-24846.78125,-11581.6015625,-17207.021484375,-24744.900390625,-32895.48828125,-32844.2109375
304484.7056444001,No Event,-35461.17578125,-23666.607421875,-24411.904296875,-11569.9111328125,-17218.80078125,-24783.658203125,-32908.765625,-32855.9453125
304484.7075727,No Event,-35491.53125,-23665.9609375,-24664.076171875,-11608.1103515625,-17234.9609375,-24602.23046875,-32931.29296875,-32888.40234375
304484.7115727,No Event,-35512.02734375,-23665.9609375,-24181.056640625,-11596.7998046875,-17243.701171875,-24620.291015625,-32950.26953125,-32905.92578125
304484.7155727,No Event,-35480.9375,-23670.921875,-24299.408203125,-11563.7197265625,-17219.828125,-24774.830078125,-32925.4609375,-32876.421875
304484.71957270004,No Event,-35472.5546875,-23682.724609375,-24768.080078125,-11562.490234375,-17211.3125,-24782.318359375,-32916.38671875,-32869.515625
304484.72357270005,No Event,-35506.6171875,-23686.30078125,-24724.986328125,-11596.15234375,-17235.654296875,-24647.15625,-32949.7578125,-32904.76171875
304484.72757270007,No Event,-35516.96484375,-23667.009765625,-24208.794921875,-11587.79296875,-17228.634765625,-24611.70703125,-32959.32421875,-32917.125
304484.7289226,No Event,-35517.90625,-23669.021484375,-24239.505859375,-11584.0595703125,-17230.982421875,-24594.205078125,-32967.99609375,-32913.94921875
304484.7315727001,No Event,-35491.26171875,-23667.412109375,-24198.982421875,-11553.884765625,-17209.703125,-24754.154296875,-32935.38671875,-32890.1015625
304484.7329226,No Event,-35481.47265625,-23655.029296875,-24106.22265625,-11535.958984375,-17200.13671875,-24715.5078125,-32932.8125,-32880.890625
304484.7355727001,No Event,-35472.1953125,-23677.42578125,-24666.826171875,-11550.755859375,-17201.298828125,-24797.29296875,-32920.1171875,-32871.1015625
304484.7369226,No Event,-35444.76953125,-23646.625,-24520.9375,-11507.6171875,-17169.40234375,-24766.001953125,-32891.015625,-32836.3671875
304484.7395727001,No Event,-35497.25390625,-23678.65625,-24738.0390625,-11584.5068359375,-17221.59375,-24661.73046875,-32944.4375,-32884.01953125
304484.74092260003,No Event,-35481.42578125,-23663.03125,-24722.169921875,-11558.064453125,-17200.517578125,-24668.033203125,-32920.9921875,-32875.9296875
304484.74492260005,No Event,-35523.91796875,-23662.31640625,-24285.70703125,-11589.201171875,-17225.86328125,-24580.2578125,-32960.8203125,-32925.83984375
304484.74892260006,No Event,-35516.49609375,-23665.6015625,-24069.609375,-11561.373046875,-17215.224609375,-24697.91796875,-32951.76953125,-32923.13671875
304484.7529226001,No Event,-35477.26953125,-23658.5625,-24458.26171875,-11537.322265625,-17193.6328125,-24797.271484375,-32910.3515625,-32880.78125
304484.7569226001,No Event,-35495.375,-23659.322265625,-24732.4296875,-11565.552734375,-17209.546875,-24697.11328125,-32926.66796875,-32897.58984375
304484.7609226001,No Event,-35529.125,-23646.291015625,-24345.05078125,-11578.2705078125,-17232.568359375,-24566.623046875,-32956.23828125,-32929.171875
304484.761448,No Event,-35488.98046875,-23640.748046875,-24336.333984375,-11535.6240234375,-17196.046875,-24767.6328125,-32910.73046875,-32886.14453125
304484.7649226001,No Event,-35513.92578125,-23631.962890625,-24018.759765625,-11555.3603515625,-17213.7265625,-24638.70703125,-32935.54296875,-32910.41796875
304484.765448,No Event,-35490.34765625,-23641.931640625,-24701.3828125,-11539.625,-17199.82421875,-24708.736328125,-32911.1328125,-32890.30078125
304484.769448,No Event,-35526.01953125,-23635.203125,-24418.587890625,-11567.228515625,-17213.458984375,-24569.796875,-32937.328125,-32928.07421875
304484.773448,No Event,-35523.40234375,-23627.291015625,-24015.2734375,-11550.2861328125,-17196.42578125,-24609.001953125,-32926.15234375,-32925.73046875
304484.77744800004,No Event,-35483.4609375,-23626.28515625,-24247.10546875,-11519.5078125,-17173.896484375,-24748.544921875,-32892.1328125,-32878.5
304484.78144800005,No Event,-35476.6875,-23628.498046875,-24671.498046875,-11525.0732421875,-17171.771484375,-24721.56640625,-32886.63671875,-32871.37109375
304484.78544800007,No Event,-35521.4140625,-23633.52734375,-24509.11328125,-11556.2314453125,-17203.892578125,-24582.560546875,-32926.30859375,-32918.30859375
304484.7894480001,No Event,-35535.94140625,-23636.43359375,-24068.939453125,-11573.7783203125,-17212.98828125,-24598.498046875,-32942.046875,-32931.62890625
304484.7934480001,No Event,-35492.984375,-23630.755859375,-24197.41796875,-11539.244140625,-17179.7734375,-24743.537109375,-32900.3359375,-32885.2265625
304484.7974480001,No Event,-35489.453125,-23647.51953125,-24649.99609375,-11544.9443359375,-17184.2890625,-24758.04296875,-32896.3359375,-32878.54296875
304484.8039764,No Event,-35510.10546875,-23639.25,-24584.818359375,-11555.0244140625,-17188.78125,-24606.119140625,-32913.2109375,-32898.4609375
304484.8079764,No Event,-35532.6796875,-23641.5078125,-24105.708984375,-11562.84765625,-17199.15234375,-24570.35546875,-32937.375,-32922.77734375
304484.81197640003,No Event,-35513.32421875,-23658.337890625,-24135.345703125,-11531.01953125,-17197.298828125,-24724.6953125,-32921.86328125,-32903.1328125
304484.81597640004,No Event,-35487.08203125,-23662.607421875,-24603.146484375,-11513.4287109375,-17189.05078125,-24777.53515625,-32899.28515625,-32876.35546875
304484.81997640006,No Event,-35512.05078125,-23662.607421875,-24674.73828125,-11549.1240234375,-17211.759765625,-24649.681640625,-32925.171875,-32907.890625
304484.8239764001,No Event,-35543.33984375,-23661.7578125,-24200.837890625,-11566.0,-17228.43359375,-24575.1171875,-32952.26171875,-32942.58203125
304484.8279764001,No Event,-35519.91796875,-23668.57421875,-24117.3984375,-11532.0693359375,-17204.294921875,-24710.880859375,-32933.328125,-32915.4453125
304484.8319764001,No Event,-35484.33203125,-23665.4453125,-24542.73046875,-11501.5146484375,-17189.900390625,-24785.537109375,-32905.03125,-32881.515625
304484.8359764001,No Event,-35504.875,-23669.37890625,-24724.830078125,-11523.7998046875,-17213.189453125,-24681.869140625,-32926.64453125,-32906.328125
304484.83997640014,No Event,-35545.578125,-23672.798828125,-24297.44140625,-11560.7919921875,-17237.53125,-24584.83984375,-32962.921875,-32947.58984375
304484.84023,No Event,-35512.51953125,-23657.9140625,-24089.79296875,-11528.5380859375,-17210.708984375,-24683.388671875,-32929.9765625,-32914.5546875
304484.84423,No Event,-35494.9296875,-23673.515625,-24478.6015625,-11520.46875,-17206.88671875,-24796.623046875,-32914.9765625,-32895.33203125
304484.84823,No Event,-35499.734375,-23669.939453125,-24752.814453125,-11539.490234375,-17217.50390625,-24710.76953125,-32922.6015625,-32898.34765625
304484.85223,No Event,-35527.0234375,-23658.115234375,-24380.92578125,-11556.34375,-17237.396484375,-24576.8828125,-32950.40625,-32924.54296875
304484.85623000003,No Event,-35517.63671875,-23656.4375,-24071.912109375,-11533.7685546875,-17224.65625,-24645.123046875,-32944.1015625,-32911.6484375
304484.86023000005,No Event,-35481.47265625,-23660.818359375,-24391.162109375,-11511.4609375,-17208.98828125,-24779.546875,-32919.359375,-32877.94140625
304484.86423000006,No Event,-35492.2890625,-23670.251953125,-24750.82421875,-11536.00390625,-17225.595703125,-24738.75390625,-32931.25,-32893.25
304484.8682300001,No Event,-35521.16796875,-23652.884765625,-24452.943359375,-11554.5556640625,-17237.44140625,-24582.42578125,-32952.88671875,-32924.65625
304484.8722300001,No Event,-35536.34375,-23662.763671875,-24065.83203125,-11550.46484375,-17245.623046875,-24623.0625,-32958.96484375,-32934.4921875
304484.8740796,No Event,-35497.8125,-23674.744140625,-24725.634765625,-11538.5068359375,-17226.244140625,-24770.046875,-32931.80859375,-32895.6640625
304484.8762300001,No Event,-35498.66015625,-23665.2890625,-24308.55078125,-11517.7421875,-17216.296875,-24775.90234375,-32923.359375,-32892.828125
304484.8780796,No Event,-35541.9765625,-23673.42578125,-24548.228515625,-11567.072265625,-17252.619140625,-24625.408203125,-32966.65625,-32941.15234375
304484.8820796,No Event,-35561.08984375,-23675.75,-24113.7109375,-11550.8671875,-17242.404296875,-24626.056640625,-32978.1875,-32954.1171875
304484.8860796,No Event,-35521.8828125,-23674.9453125,-24244.2890625,-11524.42578125,-17200.962890625,-24772.37109375,-32941.2421875,-32912.5859375
304484.89007960004,No Event,-35483.8203125,-23655.72265625,-24668.212890625,-11516.3564453125,-17196.94140625,-24774.494140625,-32913.546875,-32876.64453125
304484.89407960005,No Event,-35511.69140625,-23649.30859375,-24601.916015625,-11554.1083984375,-17242.29296875,-24620.0,-32942.42578125,-32908.78515625
304484.89807960007,No Event,-35528.65625,-23641.955078125,-24125.064453125,-11548.4091796875,-17230.71484375,-24569.283203125,-32948.125,-32924.43359375
304484.9020796001,No Event,-35497.41015625,-23642.423828125,-24142.25390625,-11509.6064453125,-17198.70703125,-24710.45703125,-32917.1015625,-32891.53125
304484.9060796001,No Event,-35478.453125,-23647.9453125,-24581.30859375,-11503.0126953125,-17193.810546875,-24769.130859375,-32904.31640625,-32876.21875
304484.9080299,No Event,-35530.35546875,-23638.064453125,-24165.5,-11534.751953125,-17226.130859375,-24548.720703125,-32948.81640625,-32926.78125
304484.9100796001,No Event,-35504.33984375,-23645.955078125,-24638.865234375,-11532.9638671875,-17218.533203125,-24639.35546875,-32931.09375,-32904.76171875
304484.9120299,No Event,-35510.26171875,-23644.525390625,-24088.341796875,-11502.38671875,-17206.41796875,-24685.021484375,-32925.171875,-32906.953125
304484.9160299,No Event,-35484.53515625,-23653.7109375,-24523.595703125,-11494.25,-17199.197265625,-24783.435546875,-32911.24609375,-32885.5859375
304484.92002990004,No Event,-35500.8046875,-23650.783203125,-24683.478515625,-11519.6865234375,-17211.37890625,-24666.357421875,-32926.6015625,-32900.2265625
304484.92402990005,No Event,-35528.0078125,-23636.76953125,-24240.578125,-11521.6982421875,-17217.90625,-24543.9140625,-32944.99609375,-32920.83203125
304484.92802990007,No Event,-35512.33984375,-23646.603515625,-24047.212890625,-11499.615234375,-17207.177734375,-24653.50390625,-32933.70703125,-32907.46875
304484.9320299001,No Event,-35504.78515625,-23682.41015625,-24465.4140625,-11499.9501953125,-17209.412109375,-24800.802734375,-32928.56640625,-32904.828125
304484.9347751,No Event,-35473.13671875,-23632.365234375,-24334.25390625,-11468.2109375,-17154.337890625,-24750.17578125,-32879.66015625,-32870.02734375
304484.9360299001,No Event,-35509.12109375,-23672.419921875,-24727.376953125,-11506.611328125,-17205.568359375,-24721.119140625,-32930.04296875,-32913.76953125
304484.9387751,No Event,-35497.4765625,-23658.001953125,-24696.419921875,-11496.6201171875,-17178.41015625,-24724.740234375,-32905.07421875,-32886.30078125
304484.9400299001,No Event,-35534.109375,-23649.888671875,-24331.68359375,-11512.8466796875,-17205.0546875,-24564.09765625,-32943.65625,-32931.921875
304484.9427751,No Event,-35524.54296875,-23630.95703125,-24390.984375,-11512.4892578125,-17196.560546875,-24558.509765625,-32922.890625,-32916.49609375
304484.9440299001,No Event,-35506.7734375,-23629.302734375,-24009.73046875,-11485.3544921875,-17172.8671875,-24611.037109375,-32908.49609375,-32904.0703125
304484.9467751,No Event,-35517.59375,-23621.14453125,-23997.548828125,-11504.2421875,-17195.017578125,-24580.392578125,-32923.94140625,-32917.7265625
304484.95077510003,No Event,-35477.8515625,-23625.66015625,-24246.189453125,-11474.0224609375,-17165.89453125,-24736.49609375,-32889.8984375,-32874.38671875
304484.95477510005,No Event,-35474.20703125,-23634.578125,-24664.412109375,-11490.8310546875,-17176.935546875,-24735.892578125,-32898.125,-32872.578125
304484.95877510007,No Event,-35518.46484375,-23641.037109375,-24481.798828125,-11525.251953125,-17210.53125,-24584.28125,-32937.75390625,-32918.8203125
304484.9627751001,No Event,-35531.60546875,-23644.255859375,-24045.984375,-11526.7724609375,-17217.951171875,-24570.78125,-32945.82421875,-32929.328125
304484.9667751001,No Event,-35502.59375,-23656.4609375,-24210.671875,-11492.5068359375,-17194.01171875,-24741.16796875,-32920.41015625,-32902.57421875
304484.96880599996,No Event,-35525.68359375,-23663.9921875,-24590.00390625,-11538.5517578125,-17218.533203125,-24630.482421875,-32945.375,-32925.39453125
304484.9707751001,No Event,-35487.5078125,-23661.1328125,-24655.91796875,-11490.5625,-17185.00390625,-24775.43359375,-32909.81640625,-32889.2265625
304484.972806,No Event,-35531.921875,-23648.48046875,-24104.412109375,-11526.3251953125,-17208.18359375,-24558.353515625,-32945.0625,-32926.421875
304484.976806,No Event,-35489.31640625,-23639.181640625,-24130.18359375,-11468.322265625,-17169.3359375,-24695.236328125,-32905.6328125,-32887.75390625
304484.980806,No Event,-35469.58203125,-23646.423828125,-24575.498046875,-11456.1181640625,-17153.51171875,-24764.2578125,-32887.21875,-32868.171875
304484.984806,No Event,-35506.91015625,-23655.09765625,-24627.8671875,-11518.3232421875,-17191.822265625,-24644.005859375,-32922.64453125,-32909.03125
304484.98880600004,No Event,-35549.6015625,-23663.8359375,-24157.072265625,-11542.3515625,-17220.5,-24561.7734375,-32959.703125,-32950.7421875
304484.99280600005,No Event,-35509.5,-23659.56640625,-24094.0859375,-11493.53515625,-17179.4609375,-24687.5234375,-32922.44140625,-32905.92578125
304484.99680600007,No Event,-35479.01171875,-23665.06640625,-24547.826171875,-11483.4541015625,-17164.373046875,-24791.080078125,-32902.86328125,-32880.9140625
304485.0008060001,No Event,-35504.94140625,-23670.20703125,-24701.62890625,-11522.435546875,-17201.767578125,-24688.306640625,-32932.48046875,-32914.88671875
304485.0048060001,No Event,-35536.859375,-23662.138671875,-24242.8359375,-11531.623046875,-17221.83984375,-24560.90234375,-32960.91015625,-32951.3671875
304485.0853989,No Event,-35517.66015625,-23663.0546875,-24058.791015625,-11504.95703125,-17196.359375,-24660.76953125,-32940.45703125,-32930.06640625
304485.0893989,No Event,-35487.015625,-23670.20703125,-24484.81640625,-11484.974609375,-17174.3203125,-24802.478515625,-32911.46875,-32899.890625
304485.0933989,No Event,-35500.046875,-23668.57421875,-24735.490234375,-11504.9345703125,-17190.369140625,-24722.974609375,-32924.296875,-32915.9609375
304485.0973989,No Event,-35556.328125,-23679.125,-24347.15234375,-11543.3349609375,-17226.154296875,-24583.341796875,-32970.74609375,-32972.5546875
304485.10139890003,No Event,-35545.21875,-23679.99609375,-24051.884765625,-11518.748046875,-17208.65234375,-24645.861328125,-32956.57421875,-32961.15625
304485.10539890005,No Event,-35487.88671875,-23670.67578125,-24401.443359375,-11483.4765625,-17175.05859375,-24786.341796875,-32909.14453125,-32902.4609375
304485.10939890007,No Event,-35513.61328125,-23696.447265625,-24756.658203125,-11519.955078125,-17210.57421875,-24759.294921875,-32933.3515625,-32924.72265625
304485.111132,No Event,-35467.34765625,-23641.26171875,-24693.626953125,-11479.029296875,-17168.28515625,-24738.91015625,-32880.64453125,-32877.0703125
304485.1133989001,No Event,-35551.23046875,-23688.87109375,-24444.671875,-11546.017578125,-17235.138671875,-24592.640625,-32963.14453125,-32961.58203125
304485.115132,No Event,-35509.45703125,-23638.556640625,-24491.119140625,-11529.07421875,-17209.412109375,-24573.8203125,-32923.4921875,-32922.01953125
304485.1173989001,No Event,-35530.84765625,-23667.123046875,-24033.869140625,-11523.1513671875,-17208.18359375,-24586.8515625,-32939.3203125,-32937.77734375
304485.119132,No Event,-35534.625,-23650.984375,-24051.505859375,-11538.5068359375,-17213.1015625,-24550.216796875,-32938.53515625,-32933.53125
304485.1213989001,No Event,-35487.6640625,-23658.361328125,-24300.16796875,-11481.5322265625,-17171.1015625,-24749.662109375,-32897.20703125,-32893.3203125
304485.12313200004,No Event,-35511.3125,-23676.8671875,-24237.60546875,-11512.712890625,-17187.57421875,-24729.009765625,-32910.28515625,-32901.03125
304485.12713200005,No Event,-35478.56640625,-23647.720703125,-24671.36328125,-11501.783203125,-17181.361328125,-24763.966796875,-32891.84375,-32886.65625
304485.13113200007,No Event,-35513.9921875,-23627.42578125,-24567.71875,-11546.7099609375,-17214.77734375,-24604.107421875,-32928.27734375,-32931.29296875
304485.1351320001,No Event,-35542.984375,-23639.09375,-24089.16796875,-11550.46484375,-17222.3984375,-24542.21484375,-32946.78515625,-32950.31640625
304485.1391320001,No Event,-35487.91015625,-23629.861328125,-24133.603515625,-11499.3466796875,-17174.74609375,-24679.365234375,-32896.78515625,-32888.828125
304485.1431320001,No Event,-35453.8671875,-23624.654296875,-24595.033203125,-11487.791015625,-17155.74609375,-24752.478515625,-32868.53125,-32852.34765625
304485.14713200013,No Event,-35501.4765625,-23640.703125,-24641.033203125,-11534.4384765625,-17197.25390625,-24631.64453125,-32915.46875,-32904.5625
304485.1498904,No Event,-35540.4140625,-23653.7109375,-24160.939453125,-11551.0234375,-17217.458984375,-24537.65625,-32952.88671875,-32945.95703125
304485.1538904,No Event,-35514.1484375,-23668.330078125,-24097.662109375,-11511.751953125,-17183.595703125,-24675.07421875,-32926.62109375,-32918.375
304485.15789040003,No Event,-35477.47265625,-23668.6875,-24539.3984375,-11487.2099609375,-17167.146484375,-24788.375,-32899.7109375,-32883.1484375
304485.16189040005,No Event,-35505.65625,-23674.07421875,-24708.712890625,-11525.498046875,-17196.873046875,-24693.783203125,-32924.5,-32911.58203125
304485.16589040007,No Event,-35556.10546875,-23691.44140625,-24270.171875,-11568.5703125,-17232.009765625,-24566.4453125,-32966.453125,-32954.67578125
304485.1698904001,No Event,-35550.09375,-23718.6875,-24088.2734375,-11535.9365234375,-17212.498046875,-24671.654296875,-32954.83203125,-32935.921875
304485.1738904001,No Event,-35460.83984375,-23651.56640625,-24455.892578125,-11481.8232421875,-17158.62890625,-24774.091796875,-32884.04296875,-32861.109375
304485.1778904001,No Event,-35483.6640625,-23653.353515625,-24720.3359375,-11514.8583984375,-17182.388671875,-24712.37890625,-32904.44921875,-32890.859375
304485.1818904001,No Event,-35538.0234375,-23663.27734375,-24341.697265625,-11558.466796875,-17223.896484375,-24563.94140625,-32951.92578125,-32940.97265625
304485.18589040014,No Event,-35516.7890625,-23653.8671875,-24022.716796875,-11533.4775390625,-17198.013671875,-24602.587890625,-32930.578125,-32912.65234375
304485.187565,No Event,-35474.36328125,-23657.98046875,-24368.140625,-11494.853515625,-17162.16015625,-24760.123046875,-32889.2265625,-32869.60546875
304485.191565,No Event,-35486.1875,-23668.6640625,-24726.55078125,-11518.033203125,-17188.759765625,-24741.951171875,-32908.5390625,-32884.2890625
304485.195565,No Event,-35535.96484375,-23674.900390625,-24438.123046875,-11562.0205078125,-17231.541015625,-24585.421875,-32959.7265625,-32935.67578125
304485.199565,No Event,-35541.77734375,-23682.724609375,-24043.525390625,-11543.5810546875,-17226.556640625,-24602.69921875,-32962.921875,-32946.11328125
304485.20356500003,No Event,-35492.08984375,-23682.322265625,-24305.263671875,-11486.6064453125,-17182.345703125,-24775.58984375,-32916.67578125,-32898.19140625
304485.20756500005,No Event,-35484.734375,-23682.65625,-24720.828125,-11491.0537109375,-17180.466796875,-24781.2890625,-32905.3671875,-32883.59765625
304485.21156500006,No Event,-35517.01171875,-23665.826171875,-24522.412109375,-11519.462890625,-17201.478515625,-24604.845703125,-32933.57421875,-32918.3984375
304485.2153025,No Event,-35519.8046875,-23676.755859375,-24625.453125,-11547.4033203125,-17216.54296875,-24645.5703125,-32938.515625,-32925.6171875
304485.2155650001,No Event,-35534.04296875,-23667.189453125,-24061.40625,-11535.0419921875,-17211.40234375,-24569.931640625,-32950.11328125,-32941.2421875
304485.2193025,No Event,-35545.421875,-23673.693359375,-24129.087890625,-11559.7861328125,-17233.6875,-24562.9140625,-32959.5234375,-32951.27734375
304485.2195650001,No Event,-35510.484375,-23687.57421875,-24233.73828125,-11517.294921875,-17194.794921875,-24752.009765625,-32927.11328125,-32919.1796875
304485.22330250003,No Event,-35504.8984375,-23672.576171875,-24155.775390625,-11516.1552734375,-17198.75,-24705.13671875,-32919.55859375,-32912.31640625
304485.2235650001,No Event,-35486.7265625,-23683.3046875,-24689.37890625,-11508.5556640625,-17186.591796875,-24798.232421875,-32907.37890625,-32895.5546875
304485.22730250005,No Event,-35477.29296875,-23671.63671875,-24626.4140625,-11498.3408203125,-17179.21484375,-24792.15234375,-32892.625,-32883.3046875
304485.23130250006,No Event,-35528.09765625,-23688.1328125,-24700.509765625,-11552.5439453125,-17232.546875,-24684.57421875,-32943.9453125,-32934.71484375
304485.2353025001,No Event,-35546.3359375,-23672.46484375,-24202.603515625,-11561.9091796875,-17241.287109375,-24562.9140625,-32964.21875,-32955.45703125
304485.2393025001,No Event,-35523.9609375,-23680.64453125,-24107.318359375,-11531.3994140625,-17213.615234375,-24685.154296875,-32941.0859375,-32933.59765625
304485.2406551,No Event,-35523.0703125,-23673.26953125,-24066.548828125,-11532.78515625,-17210.216796875,-24643.177734375,-32941.17578125,-32924.58984375
304485.2433025001,No Event,-35492.9609375,-23685.00390625,-24559.873046875,-11512.19921875,-17189.744140625,-24806.994140625,-32913.2109375,-32898.59375
304485.2446551,No Event,-35488.98046875,-23675.66015625,-24477.037109375,-11510.1201171875,-17192.671875,-24791.52734375,-32909.078125,-32888.51171875
304485.2473025001,No Event,-35497.6328125,-23669.537109375,-24731.6015625,-11525.029296875,-17199.3984375,-24697.314453125,-32918.28515625,-32899.64453125
304485.2486551,No Event,-35499.5546875,-23666.1171875,-24760.771484375,-11525.2744140625,-17213.50390625,-24733.189453125,-32922.30859375,-32899.2421875
304485.25130250014,No Event,-35536.90625,-23665.357421875,-24281.548828125,-11545.01171875,-17219.26953125,-24553.435546875,-32952.953125,-32938.1796875
304485.2526551,No Event,-35525.37109375,-23639.673828125,-24367.201171875,-11547.6708984375,-17226.7578125,-24555.291015625,-32943.58984375,-32926.84765625
304485.25665510003,No Event,-35530.4453125,-23651.85546875,-24035.412109375,-11556.8798828125,-17226.734375,-24597.736328125,-32944.99609375,-32928.6796875
304485.26065510005,No Event,-35496.94140625,-23667.748046875,-24386.580078125,-11539.53515625,-17207.2890625,-24777.220703125,-32917.61328125,-32897.4296875
304485.26465510007,No Event,-35501.8125,-23668.12890625,-24759.630859375,-11547.3359375,-17212.296875,-24764.056640625,-32919.4921875,-32906.8203125
304485.2686551001,No Event,-35548.75,-23667.30078125,-24477.373046875,-11587.255859375,-17249.04296875,-24598.474609375,-32963.7734375,-32953.3125
304485.2726551001,No Event,-35554.7421875,-23670.744140625,-24065.654296875,-11575.9912109375,-17247.544921875,-24596.642578125,-32967.50390625,-32955.0546875
304485.2751625,No Event,-35502.3046875,-23678.23046875,-24754.712890625,-11533.0751953125,-17203.265625,-24797.2265625,-32924.5,-32906.6640625
304485.2766551001,No Event,-35518.57421875,-23681.962890625,-24321.4921875,-11542.3740234375,-17213.16796875,-24774.16015625,-32936.390625,-32920.1171875
304485.2791625,No Event,-35543.4296875,-23677.26953125,-24585.95703125,-11574.91796875,-17241.890625,-24638.595703125,-32965.94140625,-32949.734375
304485.2831625,No Event,-35563.94921875,-23684.490234375,-24113.77734375,-11585.04296875,-17253.400390625,-24598.900390625,-32989.56640625,-32972.78125
304485.2871625,No Event,-35526.69140625,-23696.58203125,-24252.626953125,-11541.2333984375,-17214.509765625,-24767.453125,-32951.546875,-32928.14453125
304485.29116250004,No Event,-35512.49609375,-23704.337890625,-24720.76171875,-11530.013671875,-17206.595703125,-24831.625,-32931.6953125,-32913.45703125
304485.29516250006,No Event,-35529.9296875,-23682.96875,-24669.017578125,-11542.306640625,-17223.962890625,-24673.64453125,-32948.125,-32942.8046875
304485.2991625001,No Event,-35543.9453125,-23665.669921875,-24145.494140625,-11544.810546875,-17229.8203125,-24566.802734375,-32958.33984375,-32955.6796875
304485.3031625001,No Event,-35507.625,-23667.546875,-24153.205078125,-11507.326171875,-17191.75390625,-24711.060546875,-32925.90625,-32917.68359375
304485.3071625001,No Event,-35467.1875,-23659.767578125,-24616.400390625,-11489.6015625,-17163.033203125,-24793.248046875,-32885.5859375,-32874.296875
304485.3102521,No Event,-35544.21484375,-23662.943359375,-24223.279296875,-11554.3994140625,-17217.728515625,-24566.66796875,-32958.7890625,-32954.44921875
304485.3111625001,No Event,-35515.6015625,-23672.46484375,-24709.787109375,-11534.2158203125,-17202.05859375,-24689.044921875,-32927.7421875,-32918.1953125
304485.3142521,No Event,-35552.83984375,-23712.361328125,-24135.94921875,-11557.1259765625,-17226.4453125,-24702.41015625,-32962.453125,-32945.66796875
304485.3182521,No Event,-35496.4921875,-23687.640625,-24565.7734375,-11511.8408203125,-17189.98828125,-24812.470703125,-32906.7734375,-32890.6796875
304485.32225210004,No Event,-35500.9609375,-23655.65625,-24744.8125,-11531.041015625,-17205.904296875,-24708.646484375,-32915.42578125,-32905.390625
304485.32625210006,No Event,-35542.1328125,-23655.5,-24306.716796875,-11578.6728515625,-17252.23828125,-24566.109375,-32968.51171875,-32965.46875
304485.3302521001,No Event,-35528.41015625,-23663.658203125,-24077.880859375,-11557.05859375,-17228.859375,-24641.546875,-32950.65234375,-32946.16015625
304485.3342521001,No Event,-35481.76171875,-23659.92578125,-24469.259765625,-11517.33984375,-17193.275390625,-24786.498046875,-32906.28125,-32895.5078125
304485.3378785,No Event,-35520.54296875,-23705.455078125,-24414.005859375,-11537.009765625,-17215.447265625,-24813.1640625,-32945.93359375,-32936.5234375
304485.3382521001,No Event,-35482.3671875,-23654.091796875,-24766.560546875,-11524.380859375,-17199.3984375,-24731.177734375,-32909.16796875,-32894.63671875
304485.3418785,No Event,-35511.7578125,-23699.755859375,-24798.166015625,-11529.0302734375,-17206.6640625,-24799.640625,-32930.17578125,-32924.56640625
304485.3422521001,No Event,-35529.39453125,-23654.11328125,-24400.6171875,-11555.650390625,-17233.6640625,-24570.84765625,-32952.328125,-32945.30859375
304485.3458785,No Event,-35530.37890625,-23661.736328125,-24503.546875,-11552.7001953125,-17227.986328125,-24614.544921875,-32952.88671875,-32953.890625
304485.34625210013,No Event,-35557.109375,-23692.044921875,-24075.376953125,-11571.7890625,-17249.779296875,-24633.232421875,-32980.3125,-32972.82421875
304485.34987850004,No Event,-35572.46484375,-23696.11328125,-24087.89453125,-11562.9375,-17240.927734375,-24613.517578125,-32979.12890625,-32977.65234375
304485.35387850006,No Event,-35498.125,-23673.0,-24305.48828125,-11519.6201171875,-17192.044921875,-24767.744140625,-32924.05078125,-32914.95703125
304485.3578785001,No Event,-35488.109375,-23674.7890625,-24753.70703125,-11526.8173828125,-17193.140625,-24801.830078125,-32915.1796875,-32903.8671875
304485.3618785001,No Event,-35547.453125,-23692.37890625,-24628.1796875,-11577.689453125,-17240.03515625,-24658.130859375,-32967.34765625,-32959.12109375
304485.3658785001,No Event,-35564.28515625,-23690.099609375,-24140.3984375,-11570.3583984375,-17241.48828125,-24598.408203125,-32978.03125,-32973.875
304485.3698785001,No Event,-35516.453125,-23685.09375,-24242.166015625,-11525.341796875,-17196.404296875,-24747.560546875,-32930.01953125,-32918.80078125
304485.3721251,No Event,-35511.53515625,-23660.908203125,-24674.984375,-11541.79296875,-17207.71484375,-24656.9921875,-32932.76953125,-32926.19921875
304485.37387850013,No Event,-35480.21875,-23668.5078125,-24698.38671875,-11507.974609375,-17176.33203125,-24802.814453125,-32899.64453125,-32887.84375
304485.3761251,No Event,-35548.70703125,-23669.0,-24183.201171875,-11560.814453125,-17230.71484375,-24569.57421875,-32965.671875,-32962.140625
304485.3801251,No Event,-35516.1171875,-23672.44140625,-24161.431640625,-11515.0380859375,-17195.33203125,-24702.25390625,-32931.5390625,-32924.1640625
304485.38412510004,No Event,-35489.96484375,-23681.44921875,-24639.154296875,-11510.947265625,-17185.51953125,-24815.46484375,-32912.85546875,-32898.48046875
304485.38812510006,No Event,-35504.49609375,-23666.451171875,-24739.224609375,-11535.869140625,-17203.802734375,-24691.189453125,-32927.5859375,-32914.80078125
304485.3921251001,No Event,-35533.39453125,-23654.248046875,-24244.2890625,-11547.6044921875,-17214.396484375,-24552.654296875,-32950.09375,-32947.69921875
304485.3961251001,No Event,-35520.36328125,-23672.77734375,-24116.056640625,-11536.3837890625,-17209.234375,-24671.36328125,-32943.87890625,-32936.34765625
304485.4001251001,No Event,-35502.2578125,-23694.548828125,-24578.849609375,-11532.1142578125,-17209.546875,-24823.712890625,-32931.71875,-32919.6953125
304485.4041251001,No Event,-35525.01171875,-23697.498046875,-24813.609375,-11556.7685546875,-17236.2578125,-24752.970703125,-32951.96875,-32945.51171875
304485.40781909996,No Event,-35539.765625,-23683.349609375,-24098.82421875,-11564.8818359375,-17239.810546875,-24649.525390625,-32969.1796875,-32955.76953125
304485.40812510013,No Event,-35566.56640625,-23691.75390625,-24372.140625,-11597.9853515625,-17264.263671875,-24590.517578125,-32989.6328125,-32984.11328125
304485.4118191,No Event,-35493.2734375,-23680.33203125,-24483.787109375,-11517.33984375,-17203.98046875,-24800.69140625,-32925.28125,-32908.7421875
304485.4158191,No Event,-35494.7265625,-23670.5859375,-24805.943359375,-11525.3642578125,-17209.591796875,-24756.45703125,-32922.77734375,-32907.15625
304485.4198191,No Event,-35545.80078125,-23668.5078125,-24453.1875,-11565.0380859375,-17245.0859375,-24589.421875,-32966.05078125,-32958.02734375
304485.4238191,No Event,-35542.046875,-23668.462890625,-24076.76171875,-11534.8193359375,-17227.09375,-24608.107421875,-32960.08203125,-32953.04296875
304485.42781910003,No Event,-35494.83984375,-23667.166015625,-24378.310546875,-11502.833984375,-17186.681640625,-24770.986328125,-32914.59765625,-32901.87890625
304485.43181910005,No Event,-35498.390625,-23669.916015625,-24784.888671875,-11523.083984375,-17202.439453125,-24779.12109375,-32918.44140625,-32906.5078125
304485.43581910006,No Event,-35537.55078125,-23655.5,-24541.724609375,-11549.99609375,-17229.39453125,-24608.3984375,-32950.60546875,-32945.17578125
304485.43978169997,No Event,-35482.7890625,-23649.083984375,-24735.982421875,-11502.3642578125,-17187.150390625,-24780.126953125,-32899.62109375,-32890.5234375
304485.4398191001,No Event,-35546.13671875,-23654.5390625,-24088.67578125,-11548.296875,-17225.08203125,-24581.46484375,-32958.25,-32953.78125
304485.4437817,No Event,-35519.44921875,-23650.626953125,-24620.736328125,-11542.0380859375,-17230.333984375,-24629.25390625,-32940.859375,-32931.02734375
304485.4438191001,No Event,-35488.71484375,-23643.765625,-24285.640625,-11496.44140625,-17179.169921875,-24738.77734375,-32904.6953125,-32896.4921875
304485.4477817,No Event,-35557.3125,-23667.837890625,-24138.85546875,-11569.84375,-17247.923828125,-24573.888671875,-32969.359375,-32958.1171875
304485.4517817,No Event,-35511.1328125,-23666.02734375,-24216.818359375,-11537.61328125,-17215.939453125,-24728.0703125,-32936.078125,-32921.3046875
304485.45578170003,No Event,-35497.921875,-23678.4765625,-24713.943359375,-11550.3310546875,-17215.291015625,-24826.88671875,-32927.44921875,-32913.4140625
304485.45978170005,No Event,-35536.8828125,-23671.32421875,-24715.708984375,-11588.5078125,-17243.6328125,-24686.361328125,-32951.90234375,-32946.71875
304485.46378170006,No Event,-35563.68359375,-23660.595703125,-24194.802734375,-11591.1904296875,-17256.083984375,-24567.0703125,-32972.84765625,-32970.296875
304485.4677817001,No Event,-35533.73046875,-23669.89453125,-24151.55078125,-11545.3466796875,-17219.91796875,-24694.67578125,-32936.16796875,-32928.61328125
304485.4717817001,No Event,-35496.37890625,-23661.087890625,-24623.888671875,-11533.2099609375,-17199.9140625,-24801.943359375,-32910.53125,-32899.01953125
304485.4757817001,No Event,-35515.7578125,-23658.0703125,-24761.552734375,-11560.2109375,-17221.013671875,-24695.146484375,-32932.14453125,-32915.11328125
304485.5561627,No Event,-35552.23828125,-23648.033203125,-24276.408203125,-11580.6396484375,-17242.939453125,-24558.80078125,-32969.91796875,-32962.1171875
304485.5601627,No Event,-35577.046875,-23699.130859375,-24130.98828125,-11565.59765625,-17230.78125,-24684.349609375,-32971.08203125,-32969.5390625
304485.56416270003,No Event,-35496.828125,-23671.279296875,-24552.228515625,-11511.7294921875,-17179.4609375,-24810.34765625,-32910.93359375,-32908.80859375
304485.56816270004,No Event,-35502.59375,-23667.123046875,-24796.6015625,-11538.5517578125,-17196.8515625,-24734.9765625,-32926.109375,-32919.625
304485.57216270006,No Event,-35552.55078125,-23669.513671875,-24367.6484375,-11563.787109375,-17228.12109375,-24581.3984375,-32967.3046875,-32969.875
304485.5761627001,No Event,-35545.3984375,-23678.96875,-24085.390625,-11545.48046875,-17210.41796875,-24635.802734375,-32952.68359375,-32953.33203125
304485.5801627001,No Event,-35513.9921875,-23687.619140625,-24469.7734375,-11517.3173828125,-17186.8828125,-24792.46484375,-32911.8046875,-32910.375
304485.5841627001,No Event,-35451.07421875,-23615.7578125,-24759.072265625,-11487.74609375,-17152.86328125,-24717.966796875,-32869.06640625,-32867.75
304485.5881627001,No Event,-35506.796875,-23617.6796875,-24429.986328125,-11536.00390625,-17206.57421875,-24557.34765625,-32925.9296875,-32921.8828125
304485.5891933,No Event,-35469.91796875,-23631.046875,-24334.9921875,-11490.9423828125,-17164.373046875,-24740.185546875,-32881.0703125,-32878.61328125
304485.59216270014,No Event,-35522.15234375,-23637.484375,-24049.6953125,-11534.7744140625,-17216.744140625,-24581.80078125,-32938.3359375,-32938.11328125
304485.5931933,No Event,-35468.328125,-23628.296875,-24742.46484375,-11499.9501953125,-17166.20703125,-24743.6484375,-32876.82421875,-32871.34765625
304485.5971933,No Event,-35539.83203125,-23654.650390625,-24543.04296875,-11560.9931640625,-17228.904296875,-24604.107421875,-32944.9296875,-32943.20703125
304485.60119330004,No Event,-35568.6875,-23676.130859375,-24109.91015625,-11581.0869140625,-17251.791015625,-24598.2734375,-32976.625,-32978.5703125
304485.60519330006,No Event,-35510.05859375,-23665.580078125,-24285.841796875,-11526.3251953125,-17194.705078125,-24749.68359375,-32917.61328125,-32913.92578125
304485.6091933001,No Event,-35485.5625,-23655.990234375,-24726.640625,-11506.9462890625,-17173.806640625,-24780.283203125,-32887.93359375,-32881.13671875
304485.6131933001,No Event,-35514.5078125,-23654.650390625,-24638.41796875,-11542.1728515625,-17219.26953125,-24635.109375,-32930.17578125,-32926.51171875
304485.6171933001,No Event,-35559.3671875,-23666.853515625,-24149.697265625,-11565.798828125,-17249.892578125,-24578.134765625,-32971.9296875,-32976.578125
304485.6211933001,No Event,-35518.84375,-23670.02734375,-24209.21875,-11529.9462890625,-17218.443359375,-24723.509765625,-32934.55859375,-32930.625
304485.6234223,No Event,-35520.09765625,-23665.892578125,-24722.080078125,-11549.0126953125,-17230.35546875,-24671.921875,-32935.49609375,-32931.0703125
304485.62519330013,No Event,-35492.42578125,-23670.787109375,-24684.126953125,-11517.228515625,-17207.154296875,-24800.177734375,-32908.67578125,-32900.62890625
304485.6274223,No Event,-35547.1640625,-23655.0078125,-24207.029296875,-11556.9697265625,-17247.8125,-24550.619140625,-32959.97265625,-32960.8203125
304485.6314223,No Event,-35528.140625,-23669.177734375,-24143.259765625,-11524.58203125,-17223.337890625,-24680.884765625,-32937.62109375,-32940.50390625
304485.6354223,No Event,-35486.6796875,-23665.490234375,-24620.892578125,-11505.359375,-17195.2421875,-24802.814453125,-32901.54296875,-32901.7890625
304485.63942230004,No Event,-35513.63671875,-23670.408203125,-24779.345703125,-11540.943359375,-17223.427734375,-24706.61328125,-32930.19921875,-32927.0703125
304485.64342230005,No Event,-35550.60546875,-23662.583984375,-24296.591796875,-11559.2265625,-17250.271484375,-24563.427734375,-32964.3984375,-32969.89453125
304485.64742230007,No Event,-35527.6953125,-23662.986328125,-24096.947265625,-11535.1767578125,-17229.060546875,-24654.265625,-32947.6796875,-32947.27734375
304485.6514223001,No Event,-35487.328125,-23663.2109375,-24524.958984375,-11504.8671875,-17201.25390625,-24802.43359375,-32910.84375,-32905.8125
304485.6554223001,No Event,-35507.2421875,-23661.9375,-24796.845703125,-11536.16015625,-17223.337890625,-24743.560546875,-32925.1484375,-32925.50390625
304485.6594223001,No Event,-35546.40234375,-23651.029296875,-24386.71484375,-11567.609375,-17248.125,-24576.279296875,-32959.0546875,-32962.2734375
304485.66601559997,No Event,-35531.96484375,-23645.93359375,-24064.939453125,-11532.6728515625,-17224.947265625,-24617.25,-32943.1171875,-32944.86328125
304485.6700156,No Event,-35486.2109375,-23644.927734375,-24414.498046875,-11498.564453125,-17186.390625,-24778.115234375,-32900.3359375,-32900.671875
304485.6740156,No Event,-35504.875,-23660.86328125,-24792.263671875,-11534.505859375,-17210.26171875,-24771.142578125,-32916.54296875,-32914.7109375
304485.6780156,No Event,-35564.5078125,-23670.67578125,-24502.40625,-11579.388671875,-17256.171875,-24620.423828125,-32970.07421875,-32974.65625
304485.68201560003,No Event,-35573.5625,-23674.564453125,-24089.212890625,-11569.1962890625,-17255.033203125,-24617.8984375,-32974.9921875,-32980.421875
304485.68601560005,No Event,-35510.640625,-23665.71484375,-24352.583984375,-11517.65234375,-17207.69140625,-24782.451171875,-32925.953125,-32921.03515625
304485.69001560006,No Event,-35482.546875,-23648.390625,-24759.943359375,-11516.1103515625,-17198.3046875,-24775.8359375,-32899.77734375,-32885.83203125
304485.691283,No Event,-35500.359375,-23663.814453125,-24737.32421875,-11544.162109375,-17217.4375,-24803.037109375,-32916.2734375,-32901.92578125
304485.6940156001,No Event,-35527.984375,-23640.27734375,-24568.74609375,-11571.4755859375,-17237.150390625,-24614.791015625,-32942.58203125,-32934.51171875
304485.695283,No Event,-35543.56640625,-23666.18359375,-24672.212890625,-11583.724609375,-17254.25,-24661.57421875,-32957.69140625,-32948.3046875
304485.6980156001,No Event,-35555.30078125,-23649.888671875,-24101.3046875,-11572.302734375,-17244.146484375,-24576.48046875,-32962.4296875,-32955.5703125
304485.699283,No Event,-35571.953125,-23667.3671875,-24170.439453125,-11584.439453125,-17260.8671875,-24580.59375,-32978.7265625,-32978.390625
304485.7020156001,No Event,-35514.84375,-23657.64453125,-24262.974609375,-11534.1484375,-17214.21875,-24739.08984375,-32923.6953125,-32913.3671875
304485.70328300004,No Event,-35530.0859375,-23666.943359375,-24193.685546875,-11534.193359375,-17216.833984375,-24722.125,-32936.45703125,-32937.484375
304485.70728300005,No Event,-35492.37890625,-23661.466796875,-24660.568359375,-11516.8701171875,-17192.3359375,-24809.69921875,-32903.421875,-32898.66015625
304485.71128300007,No Event,-35521.86328125,-23662.919921875,-24727.109375,-11543.7822265625,-17217.302734375,-24692.6640625,-32931.51953125,-32929.57421875
304485.7152830001,No Event,-35561.69140625,-23668.1953125,-24233.73828125,-11559.96484375,-17242.380859375,-24582.42578125,-32970.8359375,-32975.1484375
304485.7192830001,No Event,-35552.21484375,-23693.408203125,-24152.580078125,-11551.2919921875,-17231.4296875,-24719.353515625,-32965.40234375,-32965.359375
304485.7232830001,No Event,-35515.0,-23694.771484375,-24616.69140625,-11537.478515625,-17213.189453125,-24848.478515625,-32933.70703125,-32929.39453125
304485.72660399997,No Event,-35560.6875,-23672.93359375,-24317.333984375,-11585.802734375,-17256.57421875,-24594.40625,-32976.66796875,-32976.2890625
304485.72728300013,No Event,-35522.8671875,-23679.9296875,-24789.1796875,-11562.7587890625,-17228.1875,-24747.13671875,-32942.9609375,-32938.9375
304485.730604,No Event,-35542.53515625,-23671.97265625,-24084.5625,-11546.642578125,-17232.009765625,-24670.4921875,-32952.88671875,-32954.765625
304485.734604,No Event,-35502.484375,-23669.8046875,-24497.802734375,-11514.814453125,-17202.4609375,-24815.509765625,-32911.8046875,-32910.91015625
304485.738604,No Event,-35513.703125,-23667.591796875,-24795.953125,-11531.3994140625,-17216.408203125,-24764.1015625,-32921.39453125,-32921.9296875
304485.742604,No Event,-35564.21875,-23666.720703125,-24406.8984375,-11570.0673828125,-17255.255859375,-24604.0625,-32968.3984375,-32975.4609375
304485.74660400004,No Event,-35568.578125,-23675.19140625,-24072.984375,-11569.7548828125,-17254.853515625,-24639.9140625,-32967.81640625,-32972.51171875
304485.75060400006,No Event,-35510.44140625,-23667.94921875,-24413.291015625,-11531.1083984375,-17214.107421875,-24794.09765625,-32917.90625,-32911.78125
304485.753563,No Event,-35512.3828125,-23665.4453125,-24321.537109375,-11531.689453125,-17218.353515625,-24769.0625,-32926.82421875,-32919.671875
304485.7546040001,No Event,-35508.8515625,-23669.625,-24795.86328125,-11546.62109375,-17222.779296875,-24785.423828125,-32923.6953125,-32914.9765625
304485.757563,No Event,-35520.36328125,-23683.998046875,-24773.130859375,-11543.9384765625,-17229.595703125,-24816.3828125,-32935.02734375,-32930.17578125
304485.7586040001,No Event,-35552.6640625,-23663.478515625,-24510.744140625,-11571.810546875,-17257.982421875,-24620.53515625,-32966.69921875,-32957.2890625
304485.76156300004,No Event,-35568.7109375,-23683.193359375,-24609.3828125,-11579.74609375,-17269.94140625,-24668.546875,-32980.37890625,-32980.19921875
304485.7626040001,No Event,-35551.25390625,-23655.6328125,-24080.8984375,-11566.0,-17252.23828125,-24606.72265625,-32964.75390625,-32957.984375
304485.76556300005,No Event,-35572.734375,-23671.525390625,-24119.677734375,-11564.2333984375,-17259.63671875,-24603.861328125,-32979.328125,-32981.49609375
304485.76956300007,No Event,-35522.30859375,-23668.28515625,-24246.658203125,-11527.1298828125,-17214.75390625,-24752.90234375,-32931.80859375,-32931.8515625
304485.7735630001,No Event,-35511.15625,-23674.744140625,-24716.447265625,-11522.771484375,-17211.603515625,-24820.29296875,-32919.515625,-32919.11328125
304485.7775630001,No Event,-35548.9296875,-23671.458984375,-24678.427734375,-11556.3662109375,-17247.03125,-24681.869140625,-32956.953125,-32961.40234375
304485.7815630001,No Event,-35560.75390625,-23654.60546875,-24163.3984375,-11556.544921875,-17250.427734375,-24576.771484375,-32966.4765625,-32974.7890625
304485.7855630001,No Event,-35516.16015625,-23651.498046875,-24156.291015625,-11512.8466796875,-17212.36328125,-24704.376953125,-32926.9375,-32930.6015625
304485.7876716,No Event,-35537.796875,-23670.2734375,-24737.8828125,-11557.908203125,-17254.630859375,-24714.591796875,-32953.9375,-32957.9375
304485.78956300014,No Event,-35496.9609375,-23662.697265625,-24635.17578125,-11507.9970703125,-17208.787109375,-24815.3984375,-32914.328125,-32914.3984375
304485.7916716,No Event,-35575.015625,-23667.234375,-24239.326171875,-11576.0576171875,-17272.35546875,-24581.443359375,-32981.609375,-32987.21875
304485.79567160003,No Event,-35531.98828125,-23658.001953125,-24105.708984375,-11527.0625,-17230.3125,-24680.4609375,-32942.828125,-32942.91796875
304485.79967160005,No Event,-35494.79296875,-23660.4609375,-24559.73828125,-11501.4033203125,-17210.0390625,-24816.224609375,-32915.55859375,-32909.81640625
304485.80367160006,No Event,-35523.6484375,-23668.1953125,-24775.9921875,-11545.2568359375,-17248.326171875,-24741.861328125,-32947.38671875,-32943.23046875
304485.8076716001,No Event,-35567.66015625,-23669.291015625,-24344.201171875,-11573.755859375,-17275.908203125,-24598.296875,-32985.3203125,-32984.6015625
304485.8116716001,No Event,-35550.29296875,-23670.162109375,-24087.24609375,-11539.6689453125,-17245.01953125,-24659.361328125,-32962.9453125,-32962.453125
304485.8156716001,No Event,-35505.65625,-23671.79296875,-24480.76953125,-11500.888671875,-17213.63671875,-24813.029296875,-32924.8359375,-32919.515625
304485.8196716001,No Event,-35517.34765625,-23675.615234375,-24800.2890625,-11536.205078125,-17236.369140625,-24777.892578125,-32943.83203125,-32938.24609375
304485.8218864,No Event,-35551.09765625,-23666.40625,-24083.087890625,-11534.259765625,-17245.98046875,-24635.734375,-32966.7890625,-32968.734375
304485.82367160014,No Event,-35557.17578125,-23666.67578125,-24441.767578125,-11563.9208984375,-17262.23046875,-24610.56640625,-32976.06640625,-32976.46875
304485.8258864,No Event,-35495.44140625,-23652.125,-24375.650390625,-11491.6357421875,-17203.2890625,-24785.357421875,-32915.11328125,-32909.16796875
304485.8298864,No Event,-35505.140625,-23665.646484375,-24775.388671875,-11525.6103515625,-17223.494140625,-24791.50390625,-32926.3984375,-32917.5703125
304485.83388640004,No Event,-35560.0390625,-23672.6875,-24538.259765625,-11570.4248046875,-17266.23046875,-24642.328125,-32976.9609375,-32977.6953125
304485.83788640006,No Event,-35577.62890625,-23680.689453125,-24101.1484375,-11567.474609375,-17264.0859375,-24629.41015625,-32986.234375,-32992.47265625
304485.84188640007,No Event,-35522.7109375,-23673.068359375,-24302.203125,-11516.2666015625,-17214.0625,-24784.306640625,-32931.8515625,-32939.85546875
304485.8458864001,No Event,-35518.2421875,-23683.05859375,-24745.1015625,-11517.4736328125,-17217.19140625,-24823.958984375,-32928.23046875,-32936.2109375
304485.8498864001,No Event,-35555.0546875,-23677.806640625,-24621.609375,-11547.4033203125,-17245.17578125,-24675.677734375,-32963.078125,-32971.4375
304485.8538864001,No Event,-35567.125,-23669.693359375,-24133.6484375,-11552.1416015625,-17239.966796875,-24604.845703125,-32964.84375,-32978.859375
304485.85788640013,No Event,-35504.875,-23645.240234375,-24206.513671875,-11491.92578125,-17177.650390625,-24732.853515625,-32901.90234375,-32913.8359375
304485.8580125,No Event,-35510.3046875,-23671.078125,-24676.83984375,-11507.28125,-17195.197265625,-24816.671875,-32911.6484375,-32922.421875
304485.8620125,No Event,-35555.12109375,-23679.68359375,-24699.884765625,-11549.6162109375,-17240.080078125,-24703.841796875,-32957.73828125,-32971.50390625
304485.8660125,No Event,-35583.015625,-23676.576171875,-24205.642578125,-11567.228515625,-17254.98828125,-24604.173828125,-32982.2109375,-32997.09765625
304485.87001250003,No Event,-35558.09375,-23687.751953125,-24171.490234375,-11540.33984375,-17226.17578125,-24736.564453125,-32955.79296875,-32969.0234375
304485.87401250005,No Event,-35507.5546875,-23667.255859375,-24617.00390625,-11511.9306640625,-17193.9453125,-24822.662109375,-32909.65625,-32917.28125
304485.87801250006,No Event,-35525.5703125,-23655.611328125,-24735.982421875,-11543.0888671875,-17225.08203125,-24709.09375,-32931.94140625,-32934.3359375
304485.8820125001,No Event,-35571.97265625,-23662.49609375,-24271.333984375,-11573.2861328125,-17260.7109375,-24587.052734375,-32976.1328125,-32982.03125
304485.8860125001,No Event,-35548.55078125,-23668.708984375,-24109.865234375,-11544.20703125,-17235.943359375,-24683.322265625,-32954.3828125,-32956.10546875
304485.8900125001,No Event,-35499.01953125,-23658.44921875,-24533.54296875,-11510.4111328125,-17198.9296875,-24804.22265625,-32910.953125,-32903.8671875
304485.89036809996,No Event,-35584.06640625,-23677.740234375,-24391.251953125,-11584.171875,-17278.814453125,-24620.021484375,-32994.1484375,-33001.58984375
304485.8940125001,No Event,-35538.984375,-23675.056640625,-24791.66015625,-11550.263671875,-17238.380859375,-24753.640625,-32948.3046875,-32946.89453125
304485.8943681,No Event,-35557.6484375,-23662.763671875,-24089.302734375,-11546.53125,-17250.5390625,-24660.90234375,-32967.7265625,-32970.9921875
304485.8983681,No Event,-35509.34375,-23655.947265625,-24446.482421875,-11501.0234375,-17203.84765625,-24799.505859375,-32917.234375,-32914.8671875
304485.9023681,No Event,-35520.85546875,-23664.41796875,-24790.69921875,-11524.7158203125,-17227.31640625,-24770.359375,-32930.35546875,-32927.16015625
304485.9063681,No Event,-35575.57421875,-23670.095703125,-24474.646484375,-11566.7373046875,-17275.57421875,-24622.7265625,-32980.35546875,-32985.83203125
304485.91036810004,No Event,-35577.4296875,-23669.625,-24093.03515625,-11556.857421875,-17263.97265625,-24636.517578125,-32976.2890625,-32986.8828125
304485.91436810006,No Event,-35524.23046875,-23662.80859375,-24364.65234375,-11510.8798828125,-17220.119140625,-24787.66015625,-32926.6015625,-32933.21484375
