Timestamp,Label,EEG_1,EEG_2,EEG_3,EEG_4,EEG_5,EEG_6,EEG_7,EEG_8
2024-02-05 21:44:13.817087-09:00,,24.74739646911621,22.067852020263672,-9.651288032531738,34.37883377075195,119.24005126953125,68.42218017578125,1.8318935632705688,64.5973892211914
2024-02-05 21:44:13.821087-09:00,,24.797903060913086,15.471044540405273,-12.62484359741211,58.11575698852539,110.42211151123047,6.528504848480225,-10.658937454223633,190.46246337890625
2024-02-05 21:44:13.825087-09:00,,23.79077911376953,8.814332962036133,-3.7680816650390625,79.9759292602539,81.46971893310547,-32.03746795654297,76.26749420166016,231.25453186035156
2024-02-05 21:44:13.829087-09:00,,24.05994415283203,3.8101160526275635,5.558382034301758,91.20952606201172,35.04997253417969,-7.717737674713135,131.581298828125,102.90484619140625
2024-02-05 21:44:13.833087-09:00,,23.266477584838867,-3.0277926921844482,23.553794860839844,101.32073974609375,-13.074419021606445,34.2536506652832,140.67529296875,-1.7807965278625488
2024-02-05 21:44:13.837087-09:00,,22.24454116821289,-8.279570579528809,40.48998260498047,73.28128814697266,-16.86722183227539,98.8181381225586,104.71704864501953,-50.6098518371582
2024-02-05 21:44:13.841087-09:00,,20.455501556396484,-5.690173149108887,51.4022102355957,53.67329406738281,-14.857016563415527,127.7854232788086,26.810317993164062,41.062618255615234
2024-02-05 21:44:13.845087-09:00,,19.939069747924805,-7.3086442947387695,61.43355178833008,27.677465438842773,22.42915916442871,159.8123016357422,-47.2155876159668,161.1397705078125
2024-02-05 21:44:13.849087-09:00,,18.280384063720703,-8.70118236541748,71.45694732666016,-4.988011360168457,66.42900085449219,89.5006332397461,16.968975067138672,148.4569091796875
2024-02-05 21:44:13.851727-09:00,,15.377480506896973,1.753447413444519,67.50630187988281,-20.334909439086914,129.0028076171875,-19.301959991455078,124.7005386352539,51.225135803222656
2024-02-05 21:44:13.853087-09:00,,17.040241241455078,-5.336957931518555,72.59485626220703,-6.3742547035217285,106.42342376708984,29.30518913269043,61.969390869140625,134.38758850097656
2024-02-05 21:44:13.855727-09:00,,13.506604194641113,6.654694557189941,57.4532470703125,2.973874092102051,104.16959381103516,-27.051921844482422,164.1916961669922,-86.89466094970703
2024-02-05 21:44:13.859727-09:00,,11.724578857421875,13.80567741394043,42.11140823364258,22.69976806640625,74.74175262451172,20.32765007019043,107.6536865234375,45.377296447753906
2024-02-05 21:44:13.863727-09:00,,10.0,21.39051628112793,25.37895965576172,46.947044372558594,34.81378936767578,86.04239654541016,34.0010871887207,126.51773071289062
2024-02-05 21:44:13.867727-09:00,,8.295706748962402,28.519519805908203,10.356873512268066,70.7632827758789,-4.949671745300293,113.90550994873047,-6.427053451538086,219.4468536376953
2024-02-05 21:44:13.871727-09:00,,6.376167297363281,33.78544616699219,-2.769719123840332,91.92390441894531,-5.8305864334106445,152.2369384765625,-23.91836166381836,157.7852020263672
2024-02-05 21:44:13.875727-09:00,,4.773110389709473,42.01534652709961,-15.732666015625,94.06637573242188,-21.920621871948242,112.13748168945312,45.42471694946289,61.489200592041016
2024-02-05 21:44:13.879727-09:00,,2.9252798557281494,45.113704681396484,-15.39432430267334,96.38623809814453,21.701496124267578,48.20109939575195,117.39019012451172,-57.85281753540039
2024-02-05 21:44:13.883727-09:00,,1.4162468910217285,44.9024543762207,-4.735272407531738,60.97395706176758,64.6992416381836,-15.203457832336426,152.00843811035156,-19.059816360473633
2024-02-05 21:44:13.887727-09:00,,-0.09252683073282242,50.98134994506836,0.7475628852844238,38.57851028442383,104.72555541992188,-44.27714538574219,143.4001007080078,88.00342559814453
2024-02-05 21:44:13.891288-09:00,,-0.5778850317001343,48.66199493408203,12.142024040222168,10.318190574645996,122.47173309326172,3.7576229572296143,47.015140533447266,148.70069885253906
2024-02-05 21:44:13.895288-09:00,,-1.8783717155456543,46.957401275634766,28.79509162902832,-9.78250789642334,100.13040924072266,59.85560989379883,-20.248537063598633,201.4823455810547
2024-02-05 21:44:13.899288-09:00,,-2.3361377716064453,42.105499267578125,44.05577850341797,-27.34256935119629,85.20738220214844,105.176025390625,1.2201683521270752,84.22249603271484
2024-02-05 21:44:13.903288-09:00,,-3.7803993225097656,36.80747604370117,59.96396255493164,-10.913247108459473,33.22346496582031,140.8404541015625,37.381561279296875,-32.869590759277344
2024-02-05 21:44:13.907288-09:00,,-4.119076728820801,29.858705520629883,72.87799072265625,3.814121723175049,-8.96957015991211,139.26551818847656,132.04238891601562,-37.03601837158203
2024-02-05 21:44:13.911288-09:00,,-4.55672550201416,22.084760665893555,71.81806945800781,34.730953216552734,-18.469364166259766,73.17758178710938,146.9473419189453,60.924476623535156
2024-02-05 21:44:13.915288-09:00,,-4.265748023986816,14.899993896484375,72.69563293457031,58.93509292602539,-4.630213737487793,23.002180099487305,289.17401123046875,140.9112548828125
2024-02-05 21:44:13.919288-09:00,,-4.386072635650635,7.585369110107422,67.00227355957031,92.51603698730469,14.870341300964355,-20.347787857055664,122.12197875976562,204.4274444580078
2024-02-05 21:44:13.923288-09:00,,-3.2926137447357178,2.430154323577881,53.190895080566406,95.1863784790039,63.03114700317383,-17.3211727142334,-47.82621765136719,104.71412658691406
2024-02-05 21:44:13.927288-09:00,,-2.7822678089141846,-1.7178558111190796,35.94105529785156,83.52465057373047,104.02599334716797,40.53740692138672,-2.4804842472076416,-23.285449981689453
2024-02-05 21:44:13.933176-09:00,,-2.1438846588134766,-4.231656551361084,20.742496490478516,80.76346588134766,134.8679656982422,90.92070007324219,35.84494400024414,-2.1831634044647217
2024-02-05 21:44:13.937176-09:00,,-0.5259937047958374,-6.55175256729126,8.946533203125,52.675506591796875,110.03590393066406,128.64344787597656,120.45398712158203,35.90184783935547
2024-02-05 21:44:13.941176-09:00,,0.6230020523071289,-9.285590171813965,-8.367047309875488,27.37869644165039,84.80147552490234,136.55467224121094,183.4941864013672,155.02072143554688
2024-02-05 21:44:13.945176-09:00,,1.5331923961639404,-4.089099407196045,-14.840444564819336,6.06962251663208,37.48933792114258,91.54133605957031,154.4504852294922,236.5867919921875
2024-02-05 21:44:13.949176-09:00,,2.928612470626831,-4.728655815124512,-7.712583065032959,-19.875303268432617,9.365041732788086,20.43364906311035,76.47748565673828,126.34605407714844
2024-02-05 21:44:13.953176-09:00,,5.032192707061768,2.5000252723693848,-3.927215337753296,-25.687686920166016,-31.62165641784668,-25.152023315429688,-7.794329643249512,46.36168670654297
2024-02-05 21:44:13.957176-09:00,,6.407275676727295,6.928257942199707,3.2760846614837646,-9.314149856567383,-12.727998733520508,-12.98953914642334,3.692096471786499,-71.80155181884766
2024-02-05 21:44:13.961176-09:00,,8.141508102416992,14.31645679473877,18.575105667114258,22.049467086791992,26.82176971435547,14.150257110595703,33.40365219116211,38.38882064819336
2024-02-05 21:44:13.965176-09:00,,10.0,21.274566650390625,33.989707946777344,47.728248596191406,62.527061462402344,82.33871459960938,105.42790222167969,117.41947174072266
2024-02-05 21:44:13.969176-09:00,,11.686555862426758,29.124616622924805,48.9449348449707,78.96068572998047,100.21475982666016,141.17454528808594,148.01148986816406,196.64942932128906
2024-02-05 21:44:13.974276-09:00,,13.639307022094727,35.471160888671875,62.268314361572266,91.15499114990234,114.52369689941406,160.66905212402344,177.38461303710938,139.45372009277344
2024-02-05 21:44:13.978276-09:00,,15.462733268737793,40.417335510253906,74.44078063964844,102.65711212158203,100.77645874023438,118.69882202148438,86.07691955566406,116.972900390625
2024-02-05 21:44:13.982276-09:00,,16.515714645385742,46.42388153076172,78.36491394042969,84.49053192138672,72.30744171142578,51.99937057495117,-12.931941986083984,-9.407329559326172
2024-02-05 21:44:13.986276-09:00,,18.57973861694336,46.56569290161133,67.57252502441406,61.722625732421875,34.01082229614258,9.997053146362305,-24.7330322265625,-54.27197265625
2024-02-05 21:44:13.990276-09:00,,19.991174697875977,49.105342864990234,55.80271911621094,38.54941177368164,-2.800382614135742,-13.826643943786621,7.385263442993164,93.23612976074219
2024-02-05 21:44:13.994276-09:00,,20.711355209350586,47.77592086791992,44.44572830200195,16.937366485595703,-8.202186584472656,-10.662160873413086,83.85713195800781,144.0896759033203
2024-02-05 21:44:13.998276-09:00,,22.079994201660156,45.36613464355469,31.004240036010742,-0.3323840796947479,-15.068909645080566,59.87041473388672,141.82130432128906,151.76089477539062
2024-02-05 21:44:14.002276-09:00,,22.212316513061523,40.20241165161133,14.980067253112793,-26.612028121948242,22.276561737060547,125.30615997314453,176.9122772216797,84.10161590576172
2024-02-05 21:44:14.006276-09:00,,23.04608726501465,35.10580062866211,5.994585037231445,-5.707127571105957,65.07176971435547,126.05107116699219,91.38240814208984,-25.09956169128418
2024-02-05 21:44:14.010276-09:00,,23.715167999267578,29.48990821838379,-6.417407512664795,13.81152629852295,104.3160629272461,115.6063461303711,5.786277770996094,-19.83540153503418
2024-02-05 21:44:14.015938-09:00,,23.431705474853516,22.13545036315918,-8.708723068237305,35.39915466308594,127.70628356933594,71.82512664794922,-59.75113296508789,65.84419250488281
2024-02-05 21:44:14.019938-09:00,,23.763883590698242,15.161354064941406,-12.718830108642578,65.07682800292969,97.97472381591797,23.406476974487305,10.140310287475586,188.04754638671875
2024-02-05 21:44:14.023938-09:00,,23.956398010253906,7.828128337860107,-4.711643218994141,75.99288177490234,80.98162078857422,-8.159767150878906,74.44892883300781,194.91477966308594
2024-02-05 21:44:14.027938-09:00,,22.857967376708984,2.560609817504883,8.00993537902832,101.2109375,34.81490707397461,-31.526222229003906,156.48086547851562,108.92729187011719
2024-02-05 21:44:14.031938-09:00,,23.2791690826416,-3.32948899269104,23.147520065307617,92.03003692626953,-7.504926681518555,34.66059112548828,156.59576416015625,28.89126968383789
2024-02-05 21:44:14.035938-09:00,,22.167282104492188,-4.129941940307617,38.45393371582031,78.96729278564453,-31.079023361206055,92.06281280517578,112.91487884521484,-39.44966506958008
2024-02-05 21:44:14.039938-09:00,,20.565223693847656,-5.2213945388793945,57.653648376464844,55.218292236328125,-14.608516693115234,137.226318359375,15.02090835571289,40.29582595825195
2024-02-05 21:44:14.043938-09:00,,19.46870994567871,-9.49740219116211,61.95977783203125,24.51320457458496,16.06635856628418,132.4835205078125,-39.485042572021484,129.46644592285156
2024-02-05 21:44:14.047938-09:00,,18.392396926879883,-5.80119514465332,77.21501922607422,-7.405354022979736,60.76081466674805,92.36952209472656,-25.52254867553711,160.02117919921875
2024-02-05 21:44:14.051938-09:00,,16.662322998046875,-3.6868338584899902,71.93262481689453,-9.888275146484375,105.962646484375,35.99407196044922,63.43068313598633,149.17372131347656
2024-02-05 21:44:14.058401-09:00,,15.08022403717041,2.0638084411621094,62.56724166870117,-19.060468673706055,122.71598815917969,4.468707084655762,147.51870727539062,28.643436431884766
2024-02-05 21:44:14.062401-09:00,,13.583492279052734,7.021417140960693,56.04573440551758,-6.543136119842529,105.88616180419922,-42.67171859741211,325.32098388671875,-3.569991111755371
2024-02-05 21:44:14.066401-09:00,,11.732759475708008,14.636417388916016,41.55379104614258,21.889602661132812,84.43961334228516,25.255884170532227,226.96170043945312,8.727516174316406
2024-02-05 21:44:14.070401-09:00,,10.0,21.50960350036621,25.355348587036133,50.14282989501953,37.532371520996094,83.889404296875,74.9942855834961,132.410400390625
2024-02-05 21:44:14.074401-09:00,,8.302674293518066,28.717260360717773,10.868617057800293,75.30614471435547,-7.573436260223389,143.7509307861328,0.13241872191429138,193.60092163085938
2024-02-05 21:44:14.078401-09:00,,6.344542026519775,33.69052505493164,-1.2822083234786987,84.92972564697266,-20.088037490844727,127.0831069946289,-4.625082969665527,137.4142303466797
2024-02-05 21:44:14.082401-09:00,,4.6045331954956055,40.353858947753906,-10.044184684753418,97.07691192626953,-9.646098136901855,120.20917510986328,53.85809326171875,57.79216003417969
2024-02-05 21:44:14.086401-09:00,,2.855877637863159,43.187538146972656,-10.129783630371094,84.11819458007812,20.202068328857422,48.8856201171875,127.90048217773438,-35.34111022949219
2024-02-05 21:44:14.090401-09:00,,1.7553222179412842,49.87019348144531,-4.261452674865723,71.0224838256836,62.56572341918945,-19.575376510620117,194.50881958007812,-6.183465003967285
2024-02-05 21:44:14.093024-09:00,,-1.290223240852356,46.708499908447266,11.735522270202637,16.165342330932617,117.31183624267578,10.187322616577148,55.9451904296875,190.40377807617188
2024-02-05 21:44:14.094401-09:00,,0.748005747795105,48.88372802734375,0.11777310073375702,38.81855773925781,96.97624969482422,-37.75300216674805,113.07019805908203,87.17647552490234
2024-02-05 21:44:14.097024-09:00,,-1.4986671209335327,43.48482894897461,28.898176193237305,-5.609446048736572,116.30875396728516,59.89545440673828,-39.252925872802734,190.07533264160156
2024-02-05 21:44:14.101024-09:00,,-2.852653980255127,42.74834060668945,44.659908294677734,-26.639511108398438,86.16944885253906,122.16757202148438,-54.19020462036133,170.53070068359375
2024-02-05 21:44:14.105024-09:00,,-3.947251796722412,34.55796432495117,61.96308898925781,-5.726888179779053,36.85057830810547,162.19398498535156,48.35662841796875,-23.73805046081543
2024-02-05 21:44:14.109024-09:00,,-4.189712047576904,29.846071243286133,72.00247192382812,5.849762439727783,-11.565284729003906,106.1208724975586,132.4414520263672,-46.0500373840332
2024-02-05 21:44:14.113024-09:00,,-4.296230792999268,22.339515686035156,78.509521484375,35.30619430541992,-4.460012435913086,70.50308227539062,198.54747009277344,57.23168182373047
2024-02-05 21:44:14.117024-09:00,,-4.073052883148193,15.231098175048828,73.43492126464844,58.37005615234375,-23.31195068359375,-3.173612594604492,134.14622497558594,172.61981201171875
2024-02-05 21:44:14.121024-09:00,,-4.357349872589111,9.001276969909668,58.603328704833984,78.30399322509766,24.48301124572754,-27.440446853637695,66.76190185546875,219.54379272460938
2024-02-05 21:44:14.125024-09:00,,-3.614452838897705,2.3940305709838867,50.41278076171875,101.6419448852539,67.46829223632812,-17.982040405273438,-19.24837303161621,114.45976257324219
2024-02-05 21:44:14.129024-09:00,,-2.9703640937805176,-1.1061075925827026,36.478919982910156,103.13615417480469,106.1251220703125,39.015716552734375,-44.23440933227539,-17.968198776245117
2024-02-05 21:44:14.135471-09:00,,-2.232560157775879,-3.7828128337860107,19.99419593811035,75.51811981201172,134.6359100341797,92.89118194580078,21.195695877075195,8.257549285888672
2024-02-05 21:44:14.139471-09:00,,-1.376346468925476,-5.6679277420043945,6.892951965332031,51.828712463378906,108.73297882080078,149.5621795654297,116.9350357055664,42.896934509277344
2024-02-05 21:44:14.143471-09:00,,0.30800214409828186,-6.552084445953369,-4.631886005401611,24.60845375061035,75.2296371459961,159.12937927246094,153.20465087890625,130.57911682128906
2024-02-05 21:44:14.147471-09:00,,2.016423225402832,-5.151395797729492,-11.811574935913086,8.083490371704102,34.9808235168457,98.60492706298828,136.63194274902344,164.22572326660156
2024-02-05 21:44:14.151471-09:00,,2.903043746948242,-4.441949367523193,-8.57025146484375,-20.14719581604004,-6.519927501678467,34.001625061035156,80.12879180908203,147.78189086914062
2024-02-05 21:44:14.155471-09:00,,4.562252998352051,0.5048275589942932,-10.522485733032227,-7.478224754333496,-31.43502426147461,-2.8807356357574463,-1.546754240989685,31.780475616455078
2024-02-05 21:44:14.159471-09:00,,6.654972553253174,8.352341651916504,6.251623630523682,5.650931358337402,-13.923222541809082,-8.16053581237793,-13.54231071472168,-56.75988006591797
2024-02-05 21:44:14.163471-09:00,,8.301215171813965,14.618280410766602,17.512142181396484,17.011159896850586,26.390745162963867,15.343244552612305,27.87567138671875,-12.732442855834961
2024-02-05 21:44:14.167471-09:00,,10.0,21.378767013549805,34.759334564208984,49.078033447265625,65.17952728271484,87.26982879638672,92.38473510742188,113.07723999023438
2024-02-05 21:44:14.171471-09:00,,11.81367015838623,27.980859756469727,48.2161865234375,75.25409698486328,89.51375579833984,124.05274963378906,151.0998992919922,212.1533660888672
2024-02-05 21:44:14.178211-09:00,,13.63392162322998,35.3840446472168,64.93669891357422,97.37804412841797,111.92818450927734,133.35816955566406,155.09835815429688,186.38082885742188
2024-02-05 21:44:14.182211-09:00,,15.410545349121094,40.0667610168457,68.58780670166016,91.74238586425781,111.0357666015625,120.28466033935547,94.30255126953125,45.082611083984375
2024-02-05 21:44:14.186211-09:00,,17.100814819335938,46.419471740722656,68.49882507324219,92.50820922851562,75.58621215820312,47.224815368652344,-5.850104331970215,-19.873693466186523
2024-02-05 21:44:14.190211-09:00,,18.339757919311523,45.81119155883789,74.50666809082031,66.18516540527344,33.278438568115234,8.60985279083252,-13.521225929260254,-19.706565856933594
2024-02-05 21:44:14.194211-09:00,,20.160404205322266,47.72005844116211,55.97205352783203,38.61851119995117,1.7571778297424316,-14.822667121887207,-8.114174842834473,89.28804016113281
2024-02-05 21:44:14.198211-09:00,,21.00607681274414,48.24220275878906,44.446895599365234,5.984299182891846,-32.779151916503906,-14.234729766845703,85.26680755615234,202.53990173339844
2024-02-05 21:44:14.202211-09:00,,21.824880599975586,44.022701263427734,31.099864959716797,-16.44036865234375,-10.901745796203613,59.91660690307617,343.1731872558594,211.49757385253906
2024-02-05 21:44:14.206211-09:00,,22.770137786865234,41.606014251708984,13.932059288024902,-15.338846206665039,21.029394149780273,110.79998016357422,328.5926818847656,83.47706604003906
2024-02-05 21:44:14.210211-09:00,,23.712175369262695,36.3498420715332,-2.263352155685425,-15.778916358947754,66.25240325927734,166.59039306640625,219.541748046875,-7.795405864715576
2024-02-05 21:44:14.214211-09:00,,23.85971450805664,28.50962257385254,-3.539431095123291,3.5177717208862305,115.03217315673828,110.01836395263672,15.68525505065918,-62.04869079589844
2024-02-05 21:44:14.219434-09:00,,23.7550106048584,22.028305053710938,-17.841388702392578,33.46268844604492,109.14830780029297,67.76903533935547,-9.854032516479492,64.8678207397461
2024-02-05 21:44:14.223434-09:00,,23.737985610961914,15.326991081237793,-12.010886192321777,60.80982208251953,116.75069427490234,5.621005058288574,-21.938173294067383,150.24337768554688
2024-02-05 21:44:14.227434-09:00,,23.519351959228516,7.813702583312988,-0.86850905418396,83.0691146850586,78.05437469482422,-38.68103790283203,73.41683197021484,217.32977294921875
2024-02-05 21:44:14.231434-09:00,,23.964122772216797,1.743592381477356,6.7803850173950195,98.69168853759766,37.59207534790039,-21.860586166381836,146.65634155273438,197.07156372070312
2024-02-05 21:44:14.235434-09:00,,22.65143585205078,-2.5013771057128906,24.156368255615234,102.86018371582031,-1.921776294708252,37.7548942565918,134.53948974609375,19.67044448852539
2024-02-05 21:44:14.239434-09:00,,22.432594299316406,-5.24880838394165,39.96318817138672,77.03067016601562,-9.32532024383545,92.9462890625,105.12191772460938,-90.68014526367188
2024-02-05 21:44:14.243434-09:00,,20.72869873046875,-9.221598625183105,52.31855392456055,54.76437759399414,-22.398386001586914,146.86819458007812,16.36177635192871,40.11475372314453
2024-02-05 21:44:14.247434-09:00,,19.35045051574707,-8.468771934509277,64.1826400756836,25.524654388427734,15.944628715515137,158.03294372558594,-54.28583526611328,147.02345275878906
2024-02-05 21:44:14.251434-09:00,,18.03854751586914,-5.795616149902344,68.12969970703125,7.238559722900391,62.47468185424805,98.37510681152344,-26.663366317749023,206.0961456298828
2024-02-05 21:44:14.252036-09:00,,15.339007377624512,2.9998698234558105,62.08013153076172,-24.10749626159668,114.9747314453125,-10.754989624023438,134.64564514160156,26.258005142211914
2024-02-05 21:44:14.255434-09:00,,17.08962631225586,-1.619676947593689,74.16835021972656,-24.865995407104492,94.26778411865234,25.857938766479492,64.25810241699219,134.93145751953125
2024-02-05 21:44:14.256036-09:00,,13.603837966918945,7.688828468322754,59.63986587524414,1.9364604949951172,110.21894836425781,-32.808753967285156,171.0885772705078,-70.98424530029297
2024-02-05 21:44:14.260036-09:00,,11.801901817321777,14.811461448669434,41.95745849609375,23.184659957885742,76.18019104003906,20.49517250061035,137.66690063476562,-4.255312919616699
2024-02-05 21:44:14.264036-09:00,,10.0,21.328065872192383,26.354307174682617,50.11724090576172,37.80440139770508,77.88896179199219,42.23139572143555,114.8380126953125
2024-02-05 21:44:14.268036-09:00,,8.218228340148926,28.435529708862305,7.96806001663208,81.02083587646484,4.395959854125977,140.7529754638672,-53.229156494140625,178.16522216796875
2024-02-05 21:44:14.272036-09:00,,6.34739351272583,35.05586242675781,-1.5388429164886475,99.66598510742188,-30.136232376098633,123.64927673339844,-25.39208984375,129.94712829589844
2024-02-05 21:44:14.276036-09:00,,4.874392032623291,39.632598876953125,-12.2490234375,91.69412231445312,-25.79924964904785,115.5558853149414,47.737178802490234,50.350833892822266
2024-02-05 21:44:14.280036-09:00,,3.4018335342407227,43.72802734375,-16.054420471191406,95.58914947509766,22.440853118896484,46.50592041015625,117.33601379394531,-44.02165222167969
2024-02-05 21:44:14.284036-09:00,,2.0596463680267334,49.72602462768555,-10.421652793884277,62.55060577392578,64.05924987792969,-10.114912986755371,159.87106323242188,-34.733619689941406
2024-02-05 21:44:14.288036-09:00,,-0.13112473487854004,46.28035354614258,2.382629871368408,38.558631896972656,91.23306274414062,-1.8455166816711426,129.51707458496094,95.09593963623047
2024-02-05 21:44:14.293537-09:00,,-1.4183377027511597,49.046119689941406,14.403764724731445,15.036765098571777,107.97427368164062,1.5570629835128784,53.525978088378906,177.67581176757812
2024-02-05 21:44:14.297537-09:00,,-1.8475654125213623,47.180267333984375,28.847442626953125,-6.702683448791504,101.11254119873047,59.88500213623047,13.679484367370605,208.1173095703125
2024-02-05 21:44:14.301537-09:00,,-2.9388880729675293,38.83992385864258,45.25557327270508,-19.218536376953125,73.67389678955078,135.32598876953125,7.331867694854736,82.1377182006836
2024-02-05 21:44:14.305537-09:00,,-3.649895429611206,35.18562698364258,56.6655158996582,-11.810831069946289,35.372798919677734,133.9651641845703,42.46369171142578,6.923210620880127
2024-02-05 21:44:14.309537-09:00,,-3.419440507888794,29.22978973388672,62.910099029541016,13.640725135803223,-13.249467849731445,142.84085083007812,128.03778076171875,-42.71697235107422
2024-02-05 21:44:14.313537-09:00,,-4.473402976989746,22.041152954101562,76.60884857177734,34.78313064575195,-35.62013626098633,71.49105072021484,140.1248779296875,56.759464263916016
2024-02-05 21:44:14.317537-09:00,,-4.36914587020874,14.994170188903809,70.30712127685547,64.35926055908203,-0.6429060697555542,2.632754325866699,165.05557250976562,175.46087646484375
2024-02-05 21:44:14.321537-09:00,,-4.071765899658203,8.823739051818848,59.712459564208984,80.77659606933594,14.794107437133789,-11.80877685546875,65.55306243896484,178.3995819091797
2024-02-05 21:44:14.325537-09:00,,-3.3583269119262695,3.3615477085113525,50.244144439697266,90.28160095214844,63.542911529541016,-21.404949188232422,13.266027450561523,103.58080291748047
2024-02-05 21:44:14.329537-09:00,,-3.288229465484619,-1.611586570739746,36.25238037109375,96.02159118652344,110.50627899169922,40.49604415893555,-9.72705364227295,13.855626106262207
2024-02-05 21:44:14.334847-09:00,,-1.40335214138031,-8.774292945861816,19.350566864013672,83.71916198730469,123.58335876464844,98.92012023925781,39.22770690917969,-21.790212631225586
2024-02-05 21:44:14.338847-09:00,,-1.0894056558609009,-6.286951541900635,6.306420803070068,51.5476188659668,113.51194763183594,158.07949829101562,220.98194885253906,31.596036911010742
2024-02-05 21:44:14.342847-09:00,,0.7295690774917603,-8.46255111694336,-1.4682343006134033,25.62324333190918,85.09728240966797,142.6637420654297,344.5097961425781,148.61407470703125
2024-02-05 21:44:14.346847-09:00,,1.7064728736877441,-8.346247673034668,-8.869426727294922,7.817904472351074,37.704124450683594,82.42772674560547,301.4114990234375,149.12249755859375
2024-02-05 21:44:14.350847-09:00,,3.314523935317993,-1.9830658435821533,-11.561038970947266,-22.67909049987793,-1.1427345275878906,25.370683670043945,77.43858337402344,241.56527709960938
2024-02-05 21:44:14.354847-09:00,,4.898727893829346,3.1374661922454834,-6.957205772399902,-9.955479621887207,-8.236445426940918,-11.915124893188477,7.980221748352051,64.95487976074219
2024-02-05 21:44:14.358847-09:00,,6.348401069641113,8.678084373474121,6.768269062042236,-2.327741861343384,-19.02606773376465,-7.697492599487305,-49.8997688293457,-112.06867980957031
2024-02-05 21:44:14.362847-09:00,,8.273115158081055,14.729717254638672,18.991971969604492,20.932018280029297,23.88372802734375,20.259265899658203,8.542381286621094,-9.890889167785645
2024-02-05 21:44:14.366847-09:00,,10.0,21.495325088500977,34.13031768798828,47.2831916809082,61.08271789550781,75.41755676269531,91.27908325195312,130.6156005859375
2024-02-05 21:44:14.370847-09:00,,11.783760070800781,27.62777328491211,52.2418327331543,80.65489959716797,106.68183898925781,148.40252685546875,172.39358520507812,196.71316528320312
2024-02-05 21:44:14.375270-09:00,,13.398032188415527,34.53655242919922,63.10395431518555,97.7181167602539,109.49869537353516,165.462646484375,180.6785430908203,179.495849609375
2024-02-05 21:44:14.379270-09:00,,15.102163314819336,39.23484802246094,68.35114288330078,102.30850982666016,124.2578353881836,109.05497741699219,91.5698471069336,45.35737609863281
2024-02-05 21:44:14.383270-09:00,,16.985374450683594,44.29589080810547,76.06148529052734,80.05878448486328,85.8592300415039,49.05855178833008,-8.006548881530762,-16.19001579284668
2024-02-05 21:44:14.387270-09:00,,18.26811408996582,44.67185592651367,68.51522064208984,67.11388397216797,34.99345779418945,11.893363952636719,-27.067718505859375,-49.2772102355957
2024-02-05 21:44:14.391270-09:00,,20.029552459716797,48.36479187011719,57.605934143066406,38.86686706542969,5.351470947265625,-24.412803649902344,0.5999888777732849,187.98211669921875
2024-02-05 21:44:14.395270-09:00,,21.023235321044922,47.58561706542969,44.6685676574707,10.560575485229492,-32.150238037109375,-6.0798020362854,87.06328582763672,193.8682861328125
2024-02-05 21:44:14.399270-09:00,,21.97397232055664,44.87723159790039,31.170913696289062,-4.7769551277160645,-18.554759979248047,59.88679504394531,129.4619903564453,150.8993682861328
2024-02-05 21:44:14.403270-09:00,,22.549821853637695,41.463706970214844,16.75462532043457,-6.094664573669434,17.103059768676758,123.38924407958984,140.76766967773438,82.83507537841797
2024-02-05 21:44:14.407270-09:00,,23.580808639526367,35.59370422363281,5.6712260246276855,-19.284236907958984,61.83460998535156,164.44869995117188,104.42230987548828,12.763006210327148
2024-02-05 21:44:14.411270-09:00,,23.209394454956055,29.310802459716797,-7.716673374176025,9.319047927856445,97.27580261230469,117.78247833251953,18.40030288696289,-3.581374406814575
2024-02-05 21:44:14.416311-09:00,,23.555219650268555,22.168874740600586,-17.233762741088867,34.69244384765625,112.78474426269531,67.81494140625,-39.274818420410156,65.2552490234375
2024-02-05 21:44:14.420311-09:00,,23.962064743041992,14.80431842803955,-11.663971900939941,63.32047653198242,126.89461517333984,1.7113944292068481,6.757410526275635,132.3755340576172
2024-02-05 21:44:14.424311-09:00,,24.54930877685547,9.2206392288208,-3.258972406387329,85.17359924316406,82.013427734375,-23.582120895385742,73.6052017211914,221.9195098876953
2024-02-05 21:44:14.428311-09:00,,23.364765167236328,1.5719127655029297,11.087021827697754,85.44400787353516,35.9907341003418,-17.913209915161133,142.4423370361328,103.2730941772461
2024-02-05 21:44:14.432311-09:00,,22.451108932495117,-2.866137981414795,23.840194702148438,92.93614196777344,-0.88742595911026,35.70045852661133,148.9421844482422,10.068282127380371
2024-02-05 21:44:14.436311-09:00,,22.452735900878906,-6.213631629943848,38.31596755981445,77.62187957763672,-5.053318977355957,98.68824005126953,106.90147399902344,-51.05561447143555
2024-02-05 21:44:14.440311-09:00,,21.336952209472656,-9.554635047912598,55.54008865356445,53.84624099731445,-21.5428466796875,118.27227020263672,14.962404251098633,37.21036911010742
2024-02-05 21:44:14.444311-09:00,,19.75713348388672,-10.71174144744873,61.31940841674805,23.543760299682617,23.079421997070312,118.62773895263672,-38.23848342895508,155.34939575195312
2024-02-05 21:44:14.448311-09:00,,18.351926803588867,-6.461684226989746,76.47571563720703,7.2743964195251465,66.57865905761719,96.55645751953125,1.604239583015442,183.6741180419922
2024-02-05 21:44:14.452311-09:00,,16.83924102783203,-1.0431839227676392,70.63175201416016,-14.316048622131348,114.4802017211914,37.226104736328125,60.81570816040039,128.08905029296875
2024-02-05 21:44:14.457844-09:00,,15.276342391967773,3.4589483737945557,70.0794906616211,-6.989054203033447,108.04171752929688,-27.593963623046875,135.5747833251953,24.165058135986328
2024-02-05 21:44:14.461844-09:00,,13.35969352722168,7.602303981781006,53.38541030883789,2.598954200744629,121.20469665527344,-25.393606185913086,148.46055603027344,-0.964965283870697
2024-02-05 21:44:14.465844-09:00,,11.830370903015137,14.802359580993652,41.70163345336914,23.1494083404541,83.92229461669922,29.773515701293945,135.89439392089844,12.109806060791016
2024-02-05 21:44:14.469844-09:00,,10.0,21.459789276123047,25.66846466064453,49.54539108276367,39.2386474609375,87.08023834228516,47.97384262084961,109.34201049804688
2024-02-05 21:44:14.473844-09:00,,8.269492149353027,28.12100601196289,9.88363265991211,70.27363586425781,7.080686569213867,143.9246063232422,-24.298095703125,163.9137725830078
2024-02-05 21:44:14.477844-09:00,,6.657654285430908,34.85076904296875,0.3665328621864319,82.59378814697266,-20.22428321838379,140.5522918701172,-34.367103576660156,132.25503540039062
2024-02-05 21:44:14.481844-09:00,,4.946103096008301,40.880950927734375,-15.780025482177734,99.41523742675781,2.8204643726348877,102.95738220214844,47.52385711669922,63.17747116088867
2024-02-05 21:44:14.485844-09:00,,2.915009021759033,42.89845657348633,-11.254711151123047,86.99234008789062,19.573265075683594,48.00065231323242,131.81153869628906,-60.502262115478516
2024-02-05 21:44:14.489844-09:00,,1.371228575706482,49.115325927734375,-8.51327133178711,62.19222640991211,61.43148422241211,-23.415626525878906,150.09286499023438,-38.73991012573242
2024-02-05 21:44:14.493844-09:00,,-0.020337039604783058,50.17716598510742,0.4188554584980011,38.65257263183594,98.3907241821289,-29.35915756225586,126.39366149902344,94.28604125976562
2024-02-05 21:44:14.498149-09:00,,-0.6881208419799805,48.30874252319336,13.423348426818848,10.989632606506348,137.22079467773438,14.25312614440918,50.20356750488281,200.19284057617188
2024-02-05 21:44:14.502149-09:00,,-1.5877907276153564,45.050209045410156,28.812061309814453,-11.308175086975098,119.56549072265625,59.8767204284668,-31.246658325195312,138.8633575439453
2024-02-05 21:44:14.506149-09:00,,-2.32889986038208,40.4304313659668,44.75202941894531,-17.434267044067383,83.4344711303711,118.74473571777344,-30.459741592407227,83.30278778076172
2024-02-05 21:44:14.510149-09:00,,-3.4770705699920654,34.55652618408203,55.73899841308594,-15.916644096374512,33.40945816040039,139.94296264648438,28.918447494506836,1.257216215133667
2024-02-05 21:44:14.514149-09:00,,-4.43619441986084,29.471830368041992,69.67780303955078,12.0537691116333,8.633953094482422,124.895263671875,125.74910736083984,-56.38199996948242
2024-02-05 21:44:14.518149-09:00,,-4.39363956451416,22.09099578857422,71.7734603881836,33.7951545715332,-36.12464904785156,68.52503204345703,140.05575561523438,116.94895935058594
2024-02-05 21:44:14.522149-09:00,,-4.202970027923584,15.104369163513184,76.7418212890625,60.35667037963867,-25.318923950195312,2.314383029937744,120.18215942382812,177.083740234375
2024-02-05 21:44:14.526149-09:00,,-3.4693050384521484,8.467912673950195,60.900386810302734,91.64116668701172,20.603668212890625,-39.60893630981445,137.68954467773438,169.33599853515625
2024-02-05 21:44:14.530149-09:00,,-3.6851963996887207,3.6880533695220947,53.31473922729492,99.70440673828125,61.05479431152344,1.3285584449768066,-0.01858162321150303,104.68550872802734
2024-02-05 21:44:14.531759-09:00,,-2.3038134574890137,-5.618376731872559,21.0538272857666,78.3187255859375,125.97065734863281,112.58839416503906,17.43396759033203,-1.3915128707885742
2024-02-05 21:44:14.534149-09:00,,-3.41432785987854,-4.634814262390137,37.29588317871094,101.87909698486328,112.1089859008789,42.72927474975586,-69.22908782958984,14.480594635009766
2024-02-05 21:44:14.535759-09:00,,-0.8195149898529053,-7.080109119415283,4.59009313583374,53.618804931640625,126.8477554321289,130.206298828125,119.63135528564453,40.39162063598633
2024-02-05 21:44:14.539759-09:00,,0.570068895816803,-7.125572204589844,-6.52068567276001,26.262821197509766,86.43549346923828,137.13967895507812,139.94285583496094,127.60218048095703
2024-02-05 21:44:14.543759-09:00,,1.633215308189392,-5.865730285644531,-12.458836555480957,-4.130845546722412,36.10003662109375,85.87995910644531,129.8474884033203,183.12814331054688
2024-02-05 21:44:14.547759-09:00,,3.502870798110962,-2.5334320068359375,-9.835569381713867,-6.0862860679626465,-13.605391502380371,32.20225524902344,79.95462799072266,122.62057495117188
2024-02-05 21:44:14.551759-09:00,,4.647910118103027,2.5772531032562256,-1.1644805669784546,-23.740570068359375,-25.822309494018555,-3.0739502906799316,-1.3209580183029175,47.52477264404297
2024-02-05 21:44:14.555759-09:00,,6.584590911865234,6.47578763961792,6.869203090667725,-7.491339206695557,-21.151962280273438,2.971454620361328,-37.43092346191406,-8.706927299499512
2024-02-05 21:44:14.559759-09:00,,8.267928123474121,14.543204307556152,18.899839401245117,16.995601654052734,25.683286666870117,7.247557640075684,33.038673400878906,36.81708526611328
2024-02-05 21:44:14.563759-09:00,,10.0,21.279029846191406,33.79419708251953,48.807708740234375,65.2552490234375,74.82655334472656,91.67405700683594,109.05460357666016
2024-02-05 21:44:14.567759-09:00,,11.730332374572754,28.071916580200195,48.49118423461914,79.7069320678711,107.7727279663086,132.81556701660156,134.20257568359375,184.8186492919922
2024-02-05 21:44:14.572370-09:00,,13.563247680664062,33.62651062011719,64.41497039794922,94.11924743652344,123.30194091796875,159.56736755371094,169.2227783203125,171.00399780273438
2024-02-05 21:44:14.576370-09:00,,15.055655479431152,42.20791244506836,66.41796112060547,100.45880889892578,123.06468200683594,113.75936126708984,91.4032974243164,59.17652130126953
2024-02-05 21:44:14.580370-09:00,,16.846294403076172,43.96375274658203,77.84110260009766,94.06810760498047,81.32794952392578,46.82917785644531,16.542165756225586,-4.213654041290283
2024-02-05 21:44:14.584370-09:00,,18.660297393798828,47.2998161315918,72.64396667480469,66.85323333740234,36.98860549926758,-16.81105613708496,-8.647407531738281,-17.38645362854004
2024-02-05 21:44:14.588370-09:00,,20.059024810791016,50.45106887817383,60.67271423339844,38.378753662109375,1.684401273727417,-34.27151870727539,-3.7504465579986572,93.94059753417969
2024-02-05 21:44:14.592370-09:00,,21.363698959350586,48.26972961425781,46.16175842285156,7.4061665534973145,-9.85814380645752,4.276115894317627,92.69731140136719,209.07167053222656
2024-02-05 21:44:14.596370-09:00,,22.102989196777344,46.92001724243164,31.065214157104492,-16.535606384277344,-17.770849227905273,59.920692443847656,176.50111389160156,171.79653930664062
2024-02-05 21:44:14.600370-09:00,,23.250688552856445,39.95252227783203,14.170528411865234,-27.66883659362793,14.107011795043945,104.19485473632812,155.43161010742188,83.1349105834961
2024-02-05 21:44:14.604370-09:00,,23.46725845336914,36.535247802734375,0.6488246917724609,-6.239830493927002,61.34098434448242,138.48277282714844,92.93174743652344,-44.65304183959961
2024-02-05 21:44:14.608370-09:00,,23.525981903076172,28.446165084838867,-2.2739267349243164,11.816007614135742,105.30792999267578,116.24777221679688,2.8742361068725586,-18.833913803100586
2024-02-05 21:44:14.613115-09:00,,23.709768295288086,22.169466018676758,-6.177606582641602,35.2025260925293,125.70777893066406,69.21633911132812,4.611352443695068,62.03218078613281
2024-02-05 21:44:14.617115-09:00,,24.29938507080078,14.9793701171875,-15.101725578308105,58.632896423339844,117.89909362792969,-0.9403455853462219,4.1507697105407715,165.2096710205078
2024-02-05 21:44:14.621115-09:00,,24.35305404663086,9.362710952758789,-6.562201499938965,90.08589935302734,78.20555114746094,-4.087010383605957,75.14124298095703,216.2475128173828
2024-02-05 21:44:14.625115-09:00,,23.340988159179688,0.8422257304191589,9.392059326171875,88.15064239501953,35.24399185180664,6.301548480987549,137.74435424804688,104.61013793945312
2024-02-05 21:44:14.629115-09:00,,22.711023330688477,-3.604896068572998,23.483898162841797,101.12764739990234,-14.57354736328125,39.24152755737305,178.87362670898438,-3.027866840362549
2024-02-05 21:44:14.633115-09:00,,21.817235946655273,-8.39747142791748,40.56923294067383,84.80891418457031,-25.89904022216797,96.46717834472656,114.30668640136719,-61.344207763671875
2024-02-05 21:44:14.637115-09:00,,20.472885131835938,-7.863738536834717,54.14278793334961,51.27229309082031,-0.4405285120010376,139.35177612304688,40.88282012939453,69.6108627319336
2024-02-05 21:44:14.641115-09:00,,19.419523239135742,-6.835458755493164,65.715087890625,26.921846389770508,21.26875877380371,128.6415252685547,-9.11607837677002,155.40283203125
2024-02-05 21:44:14.645115-09:00,,17.977388381958008,-6.475668430328369,67.30047607421875,6.766523361206055,65.32611846923828,86.06304931640625,-25.807323455810547,207.99508666992188
2024-02-05 21:44:14.649115-09:00,,16.631654739379883,-5.272410869598389,65.96331024169922,-15.159768104553223,101.27147674560547,34.72331237792969,64.25761413574219,157.00782775878906
2024-02-05 21:44:14.653710-09:00,,15.431893348693848,0.2249811887741089,69.3226547241211,-7.770420551300049,133.37985229492188,-16.237924575805664,148.5472412109375,18.939849853515625
2024-02-05 21:44:14.657710-09:00,,13.569499015808105,7.729892253875732,55.51863479614258,-6.796802520751953,106.6321029663086,-42.38862228393555,180.7477264404297,6.142884731292725
2024-02-05 21:44:14.661710-09:00,,11.71186637878418,14.591470718383789,40.094078063964844,24.31922721862793,76.01565551757812,16.866771697998047,232.48666381835938,32.28281784057617
2024-02-05 21:44:14.665710-09:00,,10.0,21.406909942626953,25.792842864990234,49.96125411987305,37.57816696166992,84.8944091796875,72.10701751708984,105.4935531616211
2024-02-05 21:44:14.669710-09:00,,8.155388832092285,29.013261795043945,13.299392700195312,75.77542114257812,-0.7345235347747803,146.0133056640625,-64.76919555664062,185.8845977783203
2024-02-05 21:44:14.673710-09:00,,6.411440372467041,36.31747055053711,1.837982177734375,100.13378143310547,-20.254823684692383,126.1866683959961,-44.02079391479492,173.8094024658203
2024-02-05 21:44:14.677710-09:00,,4.787008285522461,39.62245559692383,-6.304144382476807,103.48992156982422,2.5655229091644287,113.11849212646484,43.666873931884766,57.60427474975586
2024-02-05 21:44:14.681710-09:00,,2.9491162300109863,46.6573371887207,-6.431097507476807,81.46980285644531,26.499954223632812,46.749656677246094,141.5553741455078,-13.178858757019043
2024-02-05 21:44:14.685710-09:00,,1.973585844039917,47.357872009277344,-6.313772678375244,67.02072143554688,67.50347900390625,-15.20523738861084,173.44911193847656,-16.550798416137695
2024-02-05 21:44:14.689710-09:00,,0.7095891237258911,46.80546188354492,-2.7643651962280273,38.46180725097656,100.63663482666016,0.6119211912155151,121.3384780883789,93.91085052490234
2024-02-05 21:44:14.696183-09:00,,-1.172613501548767,45.04491424560547,11.197855949401855,11.403668403625488,122.90077209472656,18.133699417114258,56.381492614746094,157.81983947753906
2024-02-05 21:44:14.700183-09:00,,-1.9443269968032837,45.29131317138672,29.02565574645996,-14.677596092224121,106.56121063232422,59.90325927734375,-25.479631423950195,159.35545349121094
2024-02-05 21:44:14.704183-09:00,,-3.243532180786133,39.43703842163086,45.51496505737305,-25.15167999267578,77.69976043701172,108.32189178466797,-22.369487762451172,82.6071548461914
2024-02-05 21:44:14.708183-09:00,,-3.318418264389038,35.83907699584961,58.0959587097168,-9.2576265335083,39.20222473144531,135.945068359375,46.98209762573242,-27.40462303161621
2024-02-05 21:44:14.712183-09:00,,-3.9146084785461426,29.656681060791016,69.0218505859375,8.19588851928711,-14.342900276184082,131.00660705566406,105.66776275634766,-38.45174026489258
2024-02-05 21:44:14.716183-09:00,,-4.138679027557373,22.020374298095703,76.4512710571289,34.43574523925781,-25.991756439208984,71.54501342773438,199.5955810546875,58.76435470581055
2024-02-05 21:44:14.720183-09:00,,-4.713506698608398,14.858707427978516,65.40440368652344,60.87486267089844,-22.515026092529297,-0.8317949175834656,150.6740264892578,147.72109985351562
2024-02-05 21:44:14.724183-09:00,,-3.5575764179229736,8.311896324157715,66.41313934326172,90.37591552734375,25.37665557861328,-46.03515625,65.05892181396484,175.02548217773438
2024-02-05 21:44:14.728183-09:00,,-3.673154830932617,1.0502018928527832,54.203392028808594,100.66105651855469,63.331539154052734,-14.335997581481934,3.0652077198028564,115.77315521240234
2024-02-05 21:44:14.732183-09:00,,-2.4661614894866943,-1.2312651872634888,36.426788330078125,100.78973388671875,111.2164306640625,38.748756408691406,-3.6078855991363525,-3.6909737586975098
2024-02-05 21:44:14.739483-09:00,,-2.1134071350097656,-6.805514335632324,19.78282928466797,72.16883850097656,106.23330688476562,88.66697692871094,38.24394226074219,-9.647586822509766
2024-02-05 21:44:14.743483-09:00,,-1.0069090127944946,-5.705819606781006,8.473342895507812,52.92875671386719,126.35232543945312,159.09266662597656,117.55913543701172,48.413639068603516
2024-02-05 21:44:14.747483-09:00,,0.3399544954299927,-10.293391227722168,-2.8379786014556885,27.20167350769043,76.17459106445312,120.4947280883789,139.17202758789062,158.51873779296875
2024-02-05 21:44:14.751483-09:00,,1.3581504821777344,-5.027567386627197,-15.04393196105957,-4.574052333831787,34.94734191894531,92.806640625,137.9814453125,226.928955078125
2024-02-05 21:44:14.755483-09:00,,3.504147529602051,-4.5738911628723145,-13.097756385803223,-8.109468460083008,-0.25494635105133057,31.403318405151367,77.9157485961914,143.158935546875
2024-02-05 21:44:14.759483-09:00,,4.691745281219482,1.18816339969635,-7.348893165588379,-15.431044578552246,-6.930514812469482,-30.41068458557129,19.824949264526367,73.30287170410156
2024-02-05 21:44:14.763483-09:00,,6.496796131134033,7.039700508117676,4.665307998657227,-6.279165744781494,-19.42831802368164,-43.185707092285156,-27.849082946777344,-108.66808319091797
2024-02-05 21:44:14.767483-09:00,,8.282115936279297,13.847370147705078,19.007122039794922,21.72762107849121,26.99496841430664,7.893447399139404,28.082387924194336,38.4307861328125
2024-02-05 21:44:14.771483-09:00,,10.0,21.512550354003906,33.666717529296875,47.26453399658203,64.3031997680664,76.221435546875,94.12733459472656,134.02920532226562
2024-02-05 21:44:14.772393-09:00,,13.611985206604004,34.295989990234375,63.768592834472656,93.02735900878906,118.15586853027344,159.97671508789062,159.20773315429688,150.98976135253906
2024-02-05 21:44:14.775483-09:00,,11.817190170288086,27.575599670410156,50.3698844909668,78.35527801513672,107.02397918701172,150.063232421875,174.58258056640625,234.4779510498047
2024-02-05 21:44:14.776393-09:00,,15.070414543151855,42.1815071105957,72.06231689453125,87.1956787109375,106.56993103027344,121.35552978515625,87.46885681152344,61.27796173095703
2024-02-05 21:44:14.780393-09:00,,16.90489959716797,43.2768440246582,73.0551528930664,90.87350463867188,75.40655517578125,47.534950256347656,19.703649520874023,-17.95551109313965
2024-02-05 21:44:14.784393-09:00,,18.666128158569336,45.985748291015625,71.26301574707031,67.18022918701172,36.63557052612305,9.454690933227539,-38.98785400390625,-15.922511100769043
2024-02-05 21:44:14.788393-09:00,,19.334503173828125,47.72411346435547,63.970787048339844,38.87214660644531,-9.04283332824707,-3.3464794158935547,0.5169760584831238,94.52925109863281
2024-02-05 21:44:14.792393-09:00,,20.900894165039062,48.68981170654297,44.25447463989258,14.600905418395996,-31.642131805419922,-1.284043312072754,82.150390625,144.0791778564453
2024-02-05 21:44:14.796393-09:00,,22.348058700561523,45.39544677734375,31.03360939025879,-5.317857265472412,-25.91559600830078,59.90775680541992,159.07803344726562,179.9810333251953
2024-02-05 21:44:14.800393-09:00,,22.528980255126953,41.67300033569336,14.512724876403809,-24.673330307006836,23.80626678466797,109.29527282714844,327.8907775878906,84.14912414550781
2024-02-05 21:44:14.804393-09:00,,24.09400749206543,34.400115966796875,0.9817618727684021,-7.942238807678223,61.869449615478516,163.59461975097656,194.21946716308594,11.826200485229492
2024-02-05 21:44:14.808393-09:00,,24.280750274658203,28.434206008911133,-12.956833839416504,11.035242080688477,102.35868072509766,139.54283142089844,23.924755096435547,-29.21058464050293
2024-02-05 21:44:14.814329-09:00,Blink,24.80126190185547,22.118207931518555,-16.839908599853516,35.27482986450195,124.54471588134766,69.96149444580078,-17.106836318969727,59.825374603271484
2024-02-05 21:44:14.818329-09:00,Blink,24.0318546295166,15.514796257019043,-5.365756988525391,65.052978515625,104.18647003173828,2.5075650215148926,-11.201059341430664,185.31492614746094
2024-02-05 21:44:14.822329-09:00,Blink,23.97777557373047,8.30950927734375,-8.076752662658691,88.3699722290039,78.97095489501953,-5.841223239898682,75.87834930419922,219.659423828125
2024-02-05 21:44:14.826329-09:00,Blink,23.12921714782715,0.7256107926368713,9.473820686340332,93.36683654785156,38.56667709350586,7.413249492645264,167.7537841796875,119.21060180664062
2024-02-05 21:44:14.830329-09:00,Blink,23.087862014770508,-4.892388343811035,24.507591247558594,96.14104461669922,-2.445998430252075,42.290382385253906,176.40443420410156,3.0285584926605225
2024-02-05 21:44:14.834329-09:00,Blink,21.3673152923584,-5.777288913726807,38.674781799316406,80.85314178466797,-24.26372718811035,89.99403381347656,125.28319549560547,-66.01666259765625
2024-02-05 21:44:14.838329-09:00,Blink,21.02545928955078,-10.675516128540039,53.18193435668945,53.942508697509766,-4.153159141540527,158.5054473876953,16.085779190063477,35.905643463134766
2024-02-05 21:44:14.842329-09:00,Blink,19.958127975463867,-9.427812576293945,61.86494064331055,23.363813400268555,18.53437042236328,149.29229736328125,0.1835309863090515,124.91783142089844
2024-02-05 21:44:14.846329-09:00,Blink,18.58513641357422,-7.548976421356201,66.51231384277344,-1.6593761444091797,62.30650329589844,89.76747131347656,-36.308345794677734,203.26832580566406
2024-02-05 21:44:14.850329-09:00,Blink,16.965595245361328,-2.0068111419677734,73.62122344970703,-17.775901794433594,91.07698059082031,34.43264389038086,60.836570739746094,143.78741455078125
2024-02-05 21:44:14.855591-09:00,Blink,15.090340614318848,2.8740720748901367,67.21568298339844,-22.36932373046875,103.51132202148438,-25.980470657348633,148.6315460205078,31.96456527709961
2024-02-05 21:44:14.859591-09:00,Blink,13.359644889831543,8.090815544128418,53.76766586303711,-1.5012625455856323,119.94835662841797,-7.117080211639404,139.2963409423828,-56.47705841064453
2024-02-05 21:44:14.863591-09:00,Blink,11.778552055358887,13.897677421569824,42.616214752197266,18.055906295776367,81.05818176269531,13.820939064025879,123.64593505859375,2.4962122440338135
2024-02-05 21:44:14.867591-09:00,Blink,10.0,21.54435920715332,25.684263229370117,49.66545867919922,34.824615478515625,83.66997528076172,49.99406814575195,126.86894989013672
2024-02-05 21:44:14.871591-09:00,Blink,8.224996566772461,28.267160415649414,11.044909477233887,72.18927764892578,4.769614219665527,111.3133316040039,-34.80708312988281,221.2200469970703
2024-02-05 21:44:14.875591-09:00,Blink,6.38283109664917,35.791847229003906,-5.602505683898926,101.84111022949219,-27.58367919921875,161.16964721679688,-20.791484832763672,165.02040100097656
2024-02-05 21:44:14.879591-09:00,Blink,4.7266035079956055,40.49964141845703,-15.605478286743164,105.3591079711914,-15.607776641845703,113.60678100585938,50.77920150756836,95.57701873779297
2024-02-05 21:44:14.883591-09:00,Blink,3.2561681270599365,44.49958419799805,-15.258893966674805,92.25877380371094,20.43083953857422,52.404396057128906,116.9365463256836,-64.08536529541016
2024-02-05 21:44:14.887591-09:00,Blink,1.612862229347229,48.10519790649414,-12.759773254394531,67.6335220336914,65.92161560058594,-18.572307586669922,144.36590576171875,-2.584354877471924
2024-02-05 21:44:14.891591-09:00,Blink,0.40266016125679016,49.56512451171875,0.48120638728141785,38.80846405029297,109.31642150878906,-11.200956344604492,155.73934936523438,92.69380950927734
2024-02-05 21:44:14.896172-09:00,Blink,-0.36332476139068604,49.20185852050781,15.360122680664062,6.390269756317139,106.73756408691406,-2.0979511737823486,55.4960823059082,213.25730895996094
2024-02-05 21:44:14.900172-09:00,Blink,-2.05603289604187,46.075279235839844,28.851287841796875,0.004473781678825617,124.4400863647461,59.858585357666016,-4.420001029968262,195.00857543945312
2024-02-05 21:44:14.904172-09:00,Blink,-2.6566555500030518,39.481597900390625,43.8132438659668,-24.252880096435547,83.64364624023438,129.98594665527344,-4.0013322830200195,83.74607849121094
2024-02-05 21:44:14.908172-09:00,Blink,-2.9368691444396973,36.77898406982422,55.32134246826172,-2.3225748538970947,34.41338348388672,136.3072509765625,43.65317153930664,-26.74407958984375
2024-02-05 21:44:14.912172-09:00,Blink,-4.418314456939697,29.671852111816406,68.99148559570312,13.777892112731934,6.849654674530029,138.9705047607422,117.24148559570312,-12.210620880126953
2024-02-05 21:44:14.916172-09:00,Blink,-4.814847469329834,22.04265594482422,77.2845458984375,35.40715026855469,-11.973360061645508,69.20927429199219,159.16104125976562,67.11036682128906
2024-02-05 21:44:14.920172-09:00,Blink,-4.128673076629639,14.984846115112305,70.15753936767578,61.8117790222168,-21.673686981201172,1.5231033563613892,133.6059112548828,143.9579620361328
2024-02-05 21:44:14.924172-09:00,Blink,-4.393821716308594,7.153354644775391,65.3445053100586,87.30596923828125,16.089033126831055,-32.46657943725586,65.2046890258789,187.83816528320312
2024-02-05 21:44:14.928172-09:00,Blink,-4.047192096710205,3.7220375537872314,52.97815704345703,98.07530212402344,65.99333190917969,-7.794058799743652,-0.8518608808517456,117.40801239013672
2024-02-05 21:44:14.932172-09:00,Blink,-3.3516337871551514,-2.197659492492676,35.566585540771484,87.17265319824219,93.70608520507812,44.60404586791992,-48.70958709716797,13.878191947937012
2024-02-05 21:44:14.938338-09:00,Blink,-2.1762802600860596,-3.854872941970825,20.925161361694336,79.81507873535156,134.87921142578125,105.43038177490234,40.88880920410156,8.471996307373047
2024-02-05 21:44:14.942338-09:00,Blink,-1.269663691520691,-9.387755393981934,6.126244068145752,52.89715576171875,102.67280578613281,142.83578491210938,102.9415512084961,33.134002685546875
2024-02-05 21:44:14.946338-09:00,Blink,0.48782116174697876,-9.446977615356445,-4.210258483886719,21.79225730895996,74.35633087158203,138.69012451171875,368.7978210449219,141.13038635253906
2024-02-05 21:44:14.950338-09:00,Blink,1.5407063961029053,-8.560434341430664,-12.394377708435059,-7.564548969268799,35.32893371582031,83.99223327636719,319.8578796386719,233.31849670410156
2024-02-05 21:44:14.954338-09:00,Blink,2.9973697662353516,-1.063338279724121,-6.855212688446045,-22.980297088623047,-12.959197998046875,20.02876091003418,149.60418701171875,130.95448303222656
2024-02-05 21:44:14.958338-09:00,Blink,4.6589035987854,0.030451688915491104,-9.277912139892578,-6.722690105438232,-12.650007247924805,-27.781143188476562,-1.6770449876785278,36.71221923828125
2024-02-05 21:44:14.962338-09:00,Blink,6.337972164154053,6.767452239990234,0.6569331288337708,1.3179067373275757,0.12788045406341553,-38.89925003051758,-8.762331008911133,-10.203088760375977
2024-02-05 21:44:14.966338-09:00,Blink,8.274566650390625,14.89857292175293,19.989526748657227,19.771167755126953,24.068065643310547,27.3626651763916,32.3154182434082,17.448997497558594
2024-02-05 21:44:14.970338-09:00,Blink,10.0,21.46039581298828,33.83747100830078,46.87199401855469,62.28463363647461,87.16255187988281,106.87493896484375,105.56464385986328
2024-02-05 21:44:14.974338-09:00,Blink,11.809792518615723,28.821514129638672,48.47088623046875,71.31765747070312,93.63168334960938,120.64228057861328,130.5402374267578,208.08042907714844
2024-02-05 21:44:14.979133-09:00,Blink,13.48534870147705,34.57343292236328,64.0728759765625,83.10354614257812,132.68968200683594,141.4154052734375,186.75482177734375,176.4629669189453
2024-02-05 21:44:14.983133-09:00,Blink,15.091617584228516,39.33944320678711,73.56932067871094,102.34209442138672,109.52899169921875,106.79191589355469,83.22994232177734,55.43645095825195
2024-02-05 21:44:14.987133-09:00,Blink,16.758127212524414,42.29523468017578,73.71302795410156,92.84370422363281,82.52511596679688,51.93134307861328,-4.867712497711182,-3.0750482082366943
2024-02-05 21:44:14.991133-09:00,Blink,18.249244689941406,46.659278869628906,71.04393005371094,69.90176391601562,36.294532775878906,-13.070218086242676,-32.45535659790039,8.479829788208008
2024-02-05 21:44:14.995133-09:00,Blink,19.226566314697266,49.093597412109375,61.18695068359375,38.81741714477539,-3.490057945251465,-38.10825729370117,-15.091816902160645,87.95589447021484
2024-02-05 21:44:14.999133-09:00,Blink,21.010778427124023,46.47184371948242,47.830482482910156,6.483553886413574,-31.954015731811523,0.009511074051260948,88.52381134033203,164.95785522460938
2024-02-05 21:44:15.003133-09:00,Blink,22.22024154663086,43.2442512512207,30.99747657775879,-10.931245803833008,-2.5058891773223877,59.89200973510742,169.8515167236328,178.88546752929688
2024-02-05 21:44:15.007133-09:00,Blink,22.97894287109375,42.6636962890625,15.885749816894531,-26.474836349487305,24.85503578186035,104.02711486816406,192.6465301513672,160.21676635742188
2024-02-05 21:44:15.011133-09:00,Blink,23.48946189880371,34.09455871582031,1.7139737606048584,-19.381282806396484,61.673763275146484,149.7721710205078,101.26092529296875,-56.896995544433594
2024-02-05 21:44:15.013369-09:00,Blink,24.68093490600586,22.101917266845703,-17.06133460998535,35.001861572265625,115.2134780883789,69.81387329101562,-11.570826530456543,56.894901275634766
2024-02-05 21:44:15.015133-09:00,Blink,23.6882266998291,29.033432006835938,-10.180688858032227,6.907026767730713,99.35881042480469,130.69415283203125,27.574081420898438,-36.70134735107422
2024-02-05 21:44:15.017369-09:00,Blink,23.634153366088867,14.873649597167969,-11.490283012390137,57.77604675292969,125.47953796386719,18.712156295776367,-4.995185375213623,170.51356506347656
2024-02-05 21:44:15.021369-09:00,Blink,24.464372634887695,9.27399730682373,-1.5433244705200195,92.77059936523438,75.7266616821289,-5.3648552894592285,76.2904281616211,189.5829315185547
2024-02-05 21:44:15.025369-09:00,Blink,23.753925323486328,3.884251832962036,8.223724365234375,91.5160140991211,37.6775016784668,-19.141504287719727,146.4709930419922,114.87691497802734
2024-02-05 21:44:15.029369-09:00,Blink,22.695802688598633,-3.84904146194458,23.78610610961914,96.34142303466797,-12.903054237365723,44.42032241821289,146.0594940185547,10.652934074401855
2024-02-05 21:44:15.033369-09:00,Blink,21.621524810791016,-8.445233345031738,39.722808837890625,74.66898345947266,-20.670927047729492,110.2064437866211,123.03954315185547,-3.5181660652160645
2024-02-05 21:44:15.037369-09:00,Blink,21.01093292236328,-7.484764099121094,51.47037124633789,51.67079544067383,0.32666516304016113,154.46823120117188,37.64268112182617,48.82113265991211
2024-02-05 21:44:15.041369-09:00,Blink,19.572166442871094,-9.136885643005371,61.79927444458008,25.3057804107666,21.58745002746582,140.79327392578125,-41.14554214477539,169.09512329101562
2024-02-05 21:44:15.045369-09:00,Blink,18.281099319458008,-8.616086959838867,77.42401123046875,5.407850742340088,61.17487335205078,92.50814819335938,-20.478662490844727,153.27467346191406
2024-02-05 21:44:15.049369-09:00,Blink,16.889774322509766,-5.125258922576904,73.85161590576172,-10.853997230529785,92.6479721069336,24.232498168945312,59.726112365722656,128.6413116455078
2024-02-05 21:44:15.057089-09:00,Blink,15.203454971313477,2.227781295776367,66.68377685546875,-22.98239517211914,122.28836822509766,-19.94099998474121,130.49388122558594,22.98024559020996
2024-02-05 21:44:15.061089-09:00,Blink,13.400232315063477,7.412685871124268,57.21327590942383,4.582004070281982,100.7196273803711,-18.387632369995117,181.41590881347656,-64.689453125
2024-02-05 21:44:15.065089-09:00,Blink,11.817459106445312,13.981613159179688,40.95989227294922,17.256975173950195,76.6000747680664,23.72211265563965,112.24332427978516,4.350316047668457
2024-02-05 21:44:15.069089-09:00,Blink,10.0,21.499147415161133,25.168155670166016,48.4839973449707,35.734615325927734,77.2430419921875,39.73048782348633,133.27145385742188
2024-02-05 21:44:15.073089-09:00,Blink,8.146828651428223,27.940736770629883,7.627537727355957,79.18714904785156,-2.4224507808685303,118.4565658569336,-48.324214935302734,191.0611114501953
2024-02-05 21:44:15.077089-09:00,Blink,6.524101257324219,33.57251739501953,-5.63534688949585,89.38719177246094,-33.040950775146484,140.16554260253906,-36.95749282836914,130.28009033203125
2024-02-05 21:44:15.081089-09:00,Blink,4.789270877838135,41.6461067199707,-12.339478492736816,91.38677215576172,-24.064788818359375,102.95684051513672,49.257049560546875,45.765499114990234
2024-02-05 21:44:15.085089-09:00,Blink,3.2620675563812256,45.50254440307617,-15.133997917175293,84.34280395507812,13.321922302246094,50.618804931640625,256.4732360839844,-33.517398834228516
2024-02-05 21:44:15.089089-09:00,Blink,1.72951078414917,47.710357666015625,-5.4988322257995605,61.2760124206543,61.60018539428711,-14.222140312194824,355.8729553222656,-43.76131820678711
2024-02-05 21:44:15.093089-09:00,Blink,0.07206154614686966,45.95942687988281,2.453167676925659,38.714176177978516,111.14263153076172,-38.13209915161133,239.64047241210938,90.99446868896484
2024-02-05 21:44:15.098658-09:00,Blink,-0.8580082654953003,46.45192337036133,11.87237548828125,8.846275329589844,120.91289520263672,-12.995096206665039,52.195167541503906,218.748779296875
2024-02-05 21:44:15.102658-09:00,Blink,-2.468953847885132,46.70267105102539,28.921672821044922,-11.149486541748047,125.92135620117188,59.900699615478516,-25.077836990356445,162.76626586914062
2024-02-05 21:44:15.106658-09:00,Blink,-2.4638984203338623,41.56173324584961,45.77095413208008,-15.934155464172363,85.51628875732422,111.7558364868164,-12.286294937133789,83.40380096435547
2024-02-05 21:44:15.110658-09:00,Blink,-3.0159013271331787,36.65895080566406,57.69557189941406,-6.703402996063232,34.72028732299805,131.08831787109375,34.58015441894531,-2.6490657329559326
2024-02-05 21:44:15.114658-09:00,Blink,-3.3278748989105225,29.29088592529297,69.51641845703125,4.207688808441162,-10.863492012023926,136.0182647705078,127.628173828125,9.579309463500977
2024-02-05 21:44:15.118658-09:00,Blink,-4.342713356018066,22.28179931640625,69.47754669189453,33.199684143066406,-9.296664237976074,71.60124969482422,175.3426513671875,66.56548309326172
2024-02-05 21:44:15.122658-09:00,Blink,-4.026109218597412,14.845521926879883,75.74978637695312,63.9362678527832,-24.4151611328125,3.4614434242248535,163.05477905273438,160.7737579345703
2024-02-05 21:44:15.126658-09:00,Blink,-3.288339376449585,7.415984630584717,66.66265869140625,83.2103271484375,19.719892501831055,-30.101778030395508,64.12969970703125,219.0828857421875
2024-02-05 21:44:15.130658-09:00,Blink,-3.961186170578003,2.3264927864074707,53.3515510559082,105.91741180419922,64.8555679321289,-6.788139343261719,-10.819448471069336,216.0884246826172
2024-02-05 21:44:15.134658-09:00,Blink,-2.988321304321289,-4.928300380706787,36.24457931518555,92.94193267822266,93.41492462158203,38.50542068481445,-30.625349044799805,15.416593551635742
2024-02-05 21:44:15.140442-09:00,Blink,-2.410665512084961,-8.262714385986328,20.22112464904785,76.57410430908203,105.68949890136719,109.67992401123047,32.447509765625,-49.80535125732422
2024-02-05 21:44:15.144442-09:00,Blink,-1.044777274131775,-8.179570198059082,5.189685821533203,54.17461013793945,125.94285583496094,158.6719512939453,112.61135864257812,29.75888442993164
2024-02-05 21:44:15.148442-09:00,Blink,0.5776551961898804,-6.022254943847656,-9.004523277282715,26.148719787597656,80.87267303466797,127.65272521972656,155.95077514648438,118.93292999267578
2024-02-05 21:44:15.152442-09:00,Blink,1.4391429424285889,-8.934117317199707,-6.6281232833862305,-2.3156228065490723,38.17345428466797,94.9078140258789,133.26519775390625,203.8104705810547
2024-02-05 21:44:15.156442-09:00,Blink,3.336331367492676,-4.806094169616699,-17.40679931640625,-23.026288986206055,2.279604911804199,24.86860466003418,78.1437759399414,121.61343383789062
2024-02-05 21:44:15.160442-09:00,Blink,4.986332416534424,1.8941056728363037,-4.321050643920898,-21.518474578857422,-14.060592651367188,-24.756006240844727,4.374290943145752,32.12348175048828
2024-02-05 21:44:15.164442-09:00,Blink,6.507040500640869,8.168913841247559,2.6160671710968018,1.8209118843078613,1.785804271697998,0.6391290426254272,-37.7647819519043,-38.6024055480957
2024-02-05 21:44:15.168442-09:00,Blink,8.149764060974121,14.502453804016113,20.088281631469727,22.922195434570312,17.5595760345459,13.951375961303711,8.888599395751953,-5.106208324432373
2024-02-05 21:44:15.172442-09:00,Blink,10.0,21.551015853881836,33.82379913330078,50.12954330444336,64.4723892211914,80.24688720703125,105.07257080078125,105.8311996459961
2024-02-05 21:44:15.174169-09:00,Blink,13.346822738647461,34.828121185302734,65.8680648803711,100.13739013671875,135.2918701171875,167.60910034179688,160.63226318359375,129.48712158203125
2024-02-05 21:44:15.176442-09:00,Blink,11.69063949584961,28.906129837036133,48.13902282714844,75.09308624267578,98.26680755615234,147.45980834960938,143.9032440185547,152.59291076660156
2024-02-05 21:44:15.178169-09:00,Blink,15.41943645477295,38.545528411865234,67.33786010742188,88.7406997680664,126.54741668701172,96.88688659667969,92.9521484375,52.62624740600586
2024-02-05 21:44:15.182169-09:00,Blink,16.686241149902344,42.31126022338867,70.56355285644531,89.13863372802734,77.31778717041016,50.63266372680664,-2.218867063522339,-9.979812622070312
2024-02-05 21:44:15.186169-09:00,Blink,18.5051326751709,46.627994537353516,73.1049575805664,68.72281646728516,36.42839813232422,6.482172966003418,-21.461673736572266,13.130513191223145
2024-02-05 21:44:15.190169-09:00,Blink,19.256771087646484,50.521236419677734,59.07806396484375,38.783538818359375,-14.104241371154785,-25.94357681274414,-5.722236633300781,89.31282806396484
2024-02-05 21:44:15.194169-09:00,Blink,20.684284210205078,48.10073471069336,45.57255935668945,10.835003852844238,-28.309682846069336,-9.295557022094727,82.54142761230469,179.94537353515625
2024-02-05 21:44:15.198169-09:00,Blink,21.858604431152344,47.18592834472656,31.11933708190918,-14.91413402557373,-3.9613020420074463,59.870811462402344,162.57830810546875,196.38375854492188
2024-02-05 21:44:15.202169-09:00,Blink,22.700223922729492,42.76860427856445,13.408886909484863,-19.863250732421875,23.465938568115234,134.88172912597656,155.128662109375,83.16729736328125
2024-02-05 21:44:15.206169-09:00,Blink,22.907121658325195,36.846336364746094,-2.0612494945526123,-15.049403190612793,60.86518859863281,157.454833984375,93.04183959960938,0.6004750728607178
2024-02-05 21:44:15.210169-09:00,Blink,23.513301849365234,28.448993682861328,-7.358990669250488,11.837735176086426,107.07240295410156,134.2193145751953,22.13593864440918,-3.930051326751709
2024-02-05 21:44:15.215139-09:00,Blink,23.603057861328125,22.229372024536133,-9.304353713989258,33.39031982421875,118.86273193359375,70.50919342041016,-39.294883728027344,56.097625732421875
2024-02-05 21:44:15.219139-09:00,Blink,23.829784393310547,14.775403022766113,-16.122520446777344,59.3126106262207,121.25914001464844,7.346207141876221,17.029157638549805,161.3776092529297
2024-02-05 21:44:15.223139-09:00,Blink,23.48771095275879,8.248954772949219,0.23724089562892914,85.37491607666016,72.86809539794922,-45.431671142578125,162.40785217285156,166.64280700683594
2024-02-05 21:44:15.227139-09:00,Blink,23.563228607177734,2.7713088989257812,6.685240745544434,89.77713775634766,34.383148193359375,-18.491540908813477,302.2511901855469,112.62332916259766
2024-02-05 21:44:15.231139-09:00,Blink,23.382661819458008,-3.656805992126465,23.67760467529297,102.9909439086914,6.167973041534424,39.50149154663086,374.3665771484375,-24.784088134765625
2024-02-05 21:44:15.235139-09:00,Blink,22.45523452758789,-7.6674323081970215,40.28676223754883,83.02946472167969,-9.744253158569336,101.47854614257812,122.39139556884766,-43.839813232421875
2024-02-05 21:44:15.239139-09:00,Blink,20.816892623901367,-9.820544242858887,55.132476806640625,53.75208282470703,-13.776021003723145,124.19361114501953,16.617237091064453,43.18073654174805
2024-02-05 21:44:15.243139-09:00,Blink,20.04368782043457,-6.167533874511719,61.4356575012207,22.11357307434082,27.125001907348633,122.44905853271484,-32.85361862182617,158.30496215820312
2024-02-05 21:44:15.247139-09:00,Blink,18.70448875427246,-5.551015853881836,70.04853057861328,-7.3346052169799805,65.97247314453125,87.78023529052734,8.145391464233398,221.67269897460938
2024-02-05 21:44:15.251139-09:00,Blink,16.810731887817383,-4.752964019775391,71.53639221191406,-14.28172492980957,95.92375183105469,35.49980163574219,63.11448669433594,303.13421630859375
2024-02-05 21:44:15.256620-09:00,Blink,15.008254051208496,1.8886663913726807,70.6996078491211,-13.392654418945312,113.48360443115234,-10.765508651733398,158.95298767089844,55.49905014038086
2024-02-05 21:44:15.260620-09:00,Blink,13.532777786254883,8.130645751953125,53.215675354003906,-4.003656387329102,111.1958999633789,-41.00800323486328,166.04588317871094,-53.19857406616211
2024-02-05 21:44:15.264620-09:00,Blink,11.851314544677734,14.660630226135254,42.14631271362305,20.9080867767334,84.41565704345703,16.974254608154297,124.56287384033203,-4.290383338928223
2024-02-05 21:44:15.268620-09:00,Blink,10.0,21.401506423950195,25.440814971923828,47.712730407714844,36.491451263427734,83.65386199951172,37.052738189697266,127.15999603271484
2024-02-05 21:44:15.272620-09:00,Blink,8.217778205871582,28.340524673461914,7.621407985687256,71.19483947753906,-9.130106925964355,110.92203521728516,0.7764482498168945,207.12286376953125
2024-02-05 21:44:15.276620-09:00,Blink,6.351010322570801,34.930824279785156,-3.725764036178589,85.47444152832031,-5.397744178771973,130.09698486328125,9.541093826293945,140.24664306640625
2024-02-05 21:44:15.280620-09:00,Blink,4.742916584014893,41.963661193847656,-14.811978340148926,87.6163101196289,2.357174873352051,121.37858581542969,49.99859619140625,59.80692672729492
2024-02-05 21:44:15.284620-09:00,Blink,3.1513831615448,43.02117156982422,-8.408834457397461,78.08118438720703,21.901538848876953,46.929969787597656,143.9532928466797,-17.011680603027344
2024-02-05 21:44:15.288620-09:00,Blink,1.4090694189071655,46.291114807128906,-7.120998382568359,64.98855590820312,60.942657470703125,-24.308555603027344,170.7721710205078,-28.947256088256836
2024-02-05 21:44:15.292620-09:00,Blink,0.5746355652809143,46.416622161865234,-3.7736053466796875,38.438297271728516,96.09013366699219,-35.883602142333984,122.5937271118164,88.9630355834961
2024-02-05 21:44:15.296803-09:00,Blink,-1.020171880722046,44.766780853271484,15.31468677520752,13.199605941772461,111.03137969970703,12.154258728027344,52.08637237548828,142.5526123046875
2024-02-05 21:44:15.300803-09:00,Blink,-2.269155979156494,44.739234924316406,28.759653091430664,-13.361592292785645,99.46870422363281,59.88212966918945,-37.205780029296875,155.10379028320312
2024-02-05 21:44:15.304803-09:00,Blink,-2.269226551055908,40.054054260253906,45.70260238647461,-13.333982467651367,81.77944946289062,116.98554992675781,-22.50788688659668,82.39323425292969
2024-02-05 21:44:15.308803-09:00,Blink,-4.059330463409424,33.95250701904297,57.91081237792969,-6.433457374572754,36.066619873046875,148.47314453125,39.91034698486328,8.372081756591797
2024-02-05 21:44:15.312803-09:00,Blink,-4.292524814605713,29.792335510253906,65.8509292602539,12.289362907409668,-10.360206604003906,116.90843200683594,111.25020599365234,-35.62250900268555
2024-02-05 21:44:15.316803-09:00,Blink,-3.98297381401062,22.190597534179688,66.7599868774414,34.337215423583984,-23.08770751953125,73.56845092773438,165.8675994873047,66.55778503417969
2024-02-05 21:44:15.320803-09:00,Blink,-3.733604669570923,15.546904563903809,72.47935485839844,62.74623489379883,-3.5079586505889893,9.16240406036377,123.65522766113281,142.56805419921875
2024-02-05 21:44:15.324803-09:00,Blink,-4.266420841217041,9.27971363067627,63.55997085571289,84.4036636352539,20.707990646362305,0.24011445045471191,66.49911499023438,172.60903930664062
2024-02-05 21:44:15.328803-09:00,Blink,-3.743729591369629,0.8634147644042969,49.822914123535156,103.36620330810547,67.47622680664062,0.9900744557380676,-5.365366458892822,107.8974380493164
2024-02-05 21:44:15.332803-09:00,Blink,-3.014709711074829,-2.0140187740325928,36.53157424926758,89.06751251220703,101.0708236694336,32.72285079956055,-46.202083587646484,22.141935348510742
2024-02-05 21:44:15.337801-09:00,Blink,-1.5582902431488037,-6.309817314147949,20.84212303161621,76.08702850341797,107.30091094970703,108.96429443359375,38.815547943115234,-38.387733459472656
2024-02-05 21:44:15.341801-09:00,Blink,-1.335793137550354,-7.971402645111084,7.253105640411377,52.8192253112793,124.48880004882812,154.0476531982422,120.66748046875,51.36186599731445
2024-02-05 21:44:15.345801-09:00,Blink,0.041804198175668716,-9.42311954498291,-10.353215217590332,25.342178344726562,80.68994903564453,129.0710906982422,156.34909057617188,150.72189331054688
2024-02-05 21:44:15.349801-09:00,Blink,1.9671610593795776,-3.981231212615967,-16.6883602142334,6.673579216003418,38.11979675292969,89.76837921142578,178.07080078125,173.69515991210938
2024-02-05 21:44:15.353801-09:00,Blink,3.4405159950256348,-1.9621176719665527,-16.328630447387695,-21.384742736816406,2.840712785720825,26.32422637939453,76.2908935546875,132.5323028564453
2024-02-05 21:44:15.357801-09:00,Blink,4.875754356384277,1.132465124130249,-10.480265617370605,-6.964091777801514,-17.312707901000977,-21.07130241394043,19.033336639404297,45.15102005004883
2024-02-05 21:44:15.361801-09:00,Blink,6.658832550048828,7.838216781616211,6.916396617889404,4.345814228057861,3.501974105834961,-19.647680282592773,-38.56578826904297,-19.48518943786621
2024-02-05 21:44:15.365801-09:00,Blink,8.1730375289917,14.582706451416016,17.856019973754883,18.601755142211914,23.766366958618164,10.591623306274414,18.025596618652344,18.42974281311035
2024-02-05 21:44:15.369801-09:00,Blink,10.0,21.307897567749023,34.35953903198242,47.59381866455078,65.51313781738281,86.36845397949219,207.62181091308594,133.86314392089844
2024-02-05 21:44:15.373801-09:00,Blink,11.738658905029297,28.08995246887207,50.003997802734375,77.87837219238281,109.18709564208984,132.26419067382812,307.0479736328125,222.61239624023438
2024-02-05 21:44:15.378355-09:00,Blink,13.407876968383789,36.0214729309082,60.538631439208984,89.41423034667969,134.00991821289062,144.6625213623047,167.9582977294922,335.38427734375
2024-02-05 21:44:15.382355-09:00,Blink,15.359779357910156,40.68666076660156,67.71306610107422,104.20161437988281,120.38343811035156,118.65066528320312,83.02046966552734,118.3825912475586
2024-02-05 21:44:15.386355-09:00,Blink,16.49781036376953,43.63529968261719,69.09603118896484,96.14855194091797,82.85204315185547,51.0186653137207,23.971372604370117,-62.39224624633789
2024-02-05 21:44:15.390355-09:00,Blink,18.15586280822754,47.88094711303711,63.45728302001953,66.26454162597656,33.47145462036133,6.488250732421875,-18.304248809814453,9.876609802246094
2024-02-05 21:44:15.394355-09:00,Blink,19.3242130279541,49.4325065612793,60.22999572753906,38.35666275024414,3.0274782180786133,-17.601390838623047,-15.646135330200195,95.42481994628906
2024-02-05 21:44:15.398355-09:00,Blink,21.255901336669922,44.986576080322266,44.96737289428711,13.446338653564453,-26.212444305419922,-14.858853340148926,82.79008483886719,195.30563354492188
2024-02-05 21:44:15.402355-09:00,Blink,22.372400283813477,47.22620391845703,31.160507202148438,-17.020936965942383,-19.351856231689453,59.89138412475586,162.337646484375,157.98468017578125
2024-02-05 21:44:15.406355-09:00,Blink,23.088716506958008,41.464969635009766,13.559810638427734,-9.178436279296875,21.53873062133789,110.48579406738281,189.50469970703125,83.791259765625
2024-02-05 21:44:15.410355-09:00,Blink,23.594825744628906,35.723514556884766,4.055867671966553,-15.310308456420898,67.4250259399414,149.3109893798828,97.04844665527344,-36.57851028442383
2024-02-05 21:44:15.413791-09:00,Blink,24.470718383789062,22.312158584594727,-10.377809524536133,34.744178771972656,131.85169982910156,69.50011444091797,-92.03385162353516,128.9786376953125
2024-02-05 21:44:15.414355-09:00,Blink,24.280733108520508,28.313684463500977,-4.488736629486084,10.780919075012207,111.79256439208984,115.54081726074219,32.31101608276367,-49.24695587158203
2024-02-05 21:44:15.417790-09:00,Blink,23.998647689819336,15.1011323928833,-8.559205055236816,62.550880432128906,121.65789794921875,5.000486850738525,4.2677226066589355,179.80487060546875
2024-02-05 21:44:15.421790-09:00,Blink,23.694547653198242,8.979966163635254,-2.0178816318511963,75.66712951660156,73.67996978759766,-33.84275817871094,74.98876953125,183.36485290527344
2024-02-05 21:44:15.425790-09:00,Blink,23.738237380981445,0.9598682522773743,9.42757511138916,97.767578125,36.41017150878906,-3.531644344329834,130.40162658691406,114.83814239501953
2024-02-05 21:44:15.429790-09:00,Blink,22.71278190612793,-0.8414932489395142,22.74848747253418,98.41023254394531,0.29589903354644775,33.326358795166016,198.2188262939453,13.813349723815918
2024-02-05 21:44:15.433790-09:00,Blink,22.018680572509766,-6.581653118133545,40.07339096069336,81.70144653320312,-23.6272029876709,103.0107192993164,102.68439483642578,-38.09133529663086
2024-02-05 21:44:15.437790-09:00,Blink,20.764711380004883,-8.014924049377441,56.719173431396484,50.26668930053711,-25.44859504699707,126.3185043334961,18.245548248291016,43.28017044067383
2024-02-05 21:44:15.441790-09:00,Blink,19.65593147277832,-7.424532413482666,65.27420043945312,26.01968002319336,17.32612419128418,146.32244873046875,-44.50103759765625,138.76141357421875
2024-02-05 21:44:15.445790-09:00,Blink,18.531314849853516,-5.906856060028076,71.14985656738281,-7.638815879821777,60.60344696044922,87.21214294433594,-2.002596616744995,173.74021911621094
2024-02-05 21:44:15.449790-09:00,Blink,16.778657913208008,-3.9707295894622803,75.6551284790039,-19.88104248046875,96.7508773803711,34.57862854003906,61.43735122680664,158.52914428710938
2024-02-05 21:44:15.458676-09:00,Blink,15.45338249206543,0.7009953260421753,67.45169830322266,-9.702827453613281,125.98431396484375,-30.165760040283203,147.53494262695312,13.235408782958984
2024-02-05 21:44:15.462676-09:00,Blink,13.466818809509277,8.01086139678955,59.047889709472656,-9.88532543182373,123.95789337158203,-5.129721641540527,181.2646484375,11.977825164794922
2024-02-05 21:44:15.466676-09:00,Blink,11.76648235321045,14.463165283203125,42.40657424926758,23.556447982788086,84.78351593017578,13.996537208557129,117.88240814208984,21.861408233642578
2024-02-05 21:44:15.470676-09:00,Blink,10.0,21.431133270263672,26.24898910522461,49.03736877441406,33.6373176574707,87.0412826538086,46.391746520996094,133.273681640625
2024-02-05 21:44:15.474676-09:00,Blink,8.16213321685791,27.72092628479004,12.450024604797363,75.39020538330078,-13.486611366271973,134.777587890625,-29.473424911499023,171.4942169189453
2024-02-05 21:44:15.478676-09:00,Blink,6.511204719543457,35.78833770751953,-6.2808637619018555,91.41050720214844,-27.90093231201172,158.24473571777344,-2.1443145275115967,190.2682647705078
2024-02-05 21:44:15.482676-09:00,Blink,4.630229473114014,39.73177719116211,-9.584784507751465,97.53861999511719,-23.92021369934082,111.17532348632812,50.35377502441406,59.4360466003418
2024-02-05 21:44:15.486676-09:00,Blink,2.9359323978424072,46.99275207519531,-11.514996528625488,95.00054931640625,17.165897369384766,50.640220642089844,126.22393035888672,-53.938690185546875
2024-02-05 21:44:15.490676-09:00,Blink,1.5779165029525757,49.06498336791992,-13.271053314208984,71.1234130859375,61.781986236572266,-16.11693000793457,153.3500213623047,-7.379638195037842
2024-02-05 21:44:15.492057-09:00,Blink,-0.8779875040054321,45.04362106323242,14.14947509765625,9.118232727050781,130.5407257080078,-2.7019574642181396,47.1164436340332,180.58938598632812
2024-02-05 21:44:15.494676-09:00,Blink,-0.018831420689821243,49.352394104003906,3.4052908420562744,38.535743713378906,89.79044342041016,-17.220056533813477,113.0615005493164,87.99232482910156
2024-02-05 21:44:15.496057-09:00,Blink,-1.6401119232177734,46.982276916503906,28.78670883178711,-4.161217212677002,126.95697784423828,59.918846130371094,-44.69141387939453,206.4677276611328
2024-02-05 21:44:15.500057-09:00,Blink,-3.2243549823760986,41.68346405029297,44.7628059387207,-21.240562438964844,86.1413803100586,121.77435302734375,-20.779626846313477,83.0012435913086
2024-02-05 21:44:15.504057-09:00,Blink,-3.704942464828491,36.67913055419922,61.681190490722656,-14.171272277832031,37.3824577331543,154.07115173339844,47.014713287353516,-38.77451705932617
2024-02-05 21:44:15.508057-09:00,Blink,-3.474500894546509,29.805028915405273,67.66526794433594,3.543217897415161,-3.293806791305542,135.90467834472656,135.3163604736328,-27.990943908691406
2024-02-05 21:44:15.512057-09:00,Blink,-3.9317307472229004,21.95512580871582,76.13872528076172,34.92473602294922,-9.768128395080566,73.89726257324219,138.14486694335938,68.10794830322266
2024-02-05 21:44:15.516057-09:00,Blink,-3.4762120246887207,15.219525337219238,75.47895050048828,66.20417785644531,-11.665955543518066,7.001767635345459,126.09656524658203,131.1879425048828
2024-02-05 21:44:15.520057-09:00,Blink,-3.2854042053222656,9.162946701049805,63.95639419555664,75.77767181396484,16.018619537353516,-33.01693344116211,63.836387634277344,170.12611389160156
2024-02-05 21:44:15.524057-09:00,Blink,-3.1443533897399902,1.295036792755127,53.6491813659668,85.90252685546875,62.55009841918945,-24.237953186035156,-17.59880828857422,121.75948333740234
2024-02-05 21:44:15.528057-09:00,Blink,-2.754293441772461,-0.5748032927513123,36.811519622802734,100.9118881225586,106.4925765991211,38.137699127197266,-54.49680709838867,7.940204620361328
2024-02-05 21:44:15.533483-09:00,Blink,-1.9769058227539062,-7.901321887969971,21.762113571166992,76.94609832763672,114.9308090209961,98.0670394897461,22.38663101196289,-26.79682731628418
2024-02-05 21:44:15.537483-09:00,Blink,-1.3510388135910034,-9.863826751708984,5.828969955444336,50.99068069458008,102.63810729980469,141.87535095214844,102.24183654785156,84.67311096191406
2024-02-05 21:44:15.541483-09:00,Blink,0.36883342266082764,-9.96656322479248,-6.014678001403809,25.147716522216797,81.76378631591797,114.3892593383789,168.19935607910156,142.5638885498047
2024-02-05 21:44:15.545483-09:00,Blink,1.7870440483093262,-8.438128471374512,-6.826682090759277,-5.500410079956055,38.902950286865234,84.75121307373047,310.41949462890625,234.01589965820312
2024-02-05 21:44:15.549483-09:00,Blink,3.4690301418304443,-1.4480596780776978,-17.97991180419922,-10.17402458190918,-3.1667139530181885,21.402864456176758,168.81980895996094,142.61671447753906
2024-02-05 21:44:15.553483-09:00,Blink,4.90941858291626,0.22999466955661774,-9.082589149475098,-16.842208862304688,-32.71940994262695,-11.572999954223633,7.948599338531494,37.545372009277344
2024-02-05 21:44:15.557483-09:00,Blink,6.624688625335693,6.5582733154296875,5.736246585845947,-7.743656158447266,-13.250473022460938,-16.77362823486328,-45.85086441040039,-68.8070068359375
2024-02-05 21:44:15.561483-09:00,Blink,8.289722442626953,14.082951545715332,17.12847137451172,21.261667251586914,26.44587516784668,23.255306243896484,7.899369716644287,19.92055320739746
2024-02-05 21:44:15.565483-09:00,Blink,10.0,21.451953887939453,34.19688034057617,47.1206169128418,62.445533752441406,87.01518249511719,97.2628173828125,109.49114227294922
2024-02-05 21:44:15.569483-09:00,Blink,11.818432807922363,27.67035484313965,51.94148254394531,77.19983673095703,114.69503021240234,141.78501892089844,161.30911254882812,155.2090301513672
2024-02-05 21:44:15.573584-09:00,Blink,13.491661071777344,34.34336853027344,57.72241973876953,97.78526306152344,136.26943969726562,131.98419189453125,162.92921447753906,191.41444396972656
2024-02-05 21:44:15.577584-09:00,Blink,14.9727144241333,39.80537414550781,69.24658966064453,98.40560913085938,110.87764739990234,123.7818374633789,95.8901138305664,54.90007400512695
2024-02-05 21:44:15.581584-09:00,Blink,16.50455665588379,43.12920379638672,67.49629974365234,78.94828796386719,84.84314727783203,50.264217376708984,24.47170639038086,-52.7332649230957
2024-02-05 21:44:15.585584-09:00,Blink,17.926774978637695,45.52157974243164,72.25385284423828,68.71127319335938,38.69955062866211,-23.568584442138672,-4.685741424560547,7.7559614181518555
2024-02-05 21:44:15.589584-09:00,Blink,19.635530471801758,49.516387939453125,57.23069381713867,38.4218635559082,-7.427562713623047,-23.900123596191406,3.1926379203796387,87.61502838134766
2024-02-05 21:44:15.593584-09:00,Blink,20.691280364990234,49.37591552734375,46.977882385253906,10.245450973510742,-5.318156719207764,0.22939640283584595,84.02812957763672,195.18727111816406
2024-02-05 21:44:15.597584-09:00,Blink,21.796796798706055,44.48793029785156,31.236391067504883,-8.664233207702637,-24.736183166503906,59.901912689208984,160.4718017578125,175.59451293945312
2024-02-05 21:44:15.601584-09:00,Blink,22.252206802368164,41.2993278503418,14.02997875213623,-10.540882110595703,27.13946533203125,101.16362762451172,182.20494079589844,84.20046997070312
2024-02-05 21:44:15.605584-09:00,Blink,23.207895278930664,34.53099822998047,4.5453901290893555,-20.435405731201172,62.648067474365234,142.0072479248047,101.64745330810547,11.846573829650879
2024-02-05 21:44:15.609584-09:00,Blink,23.572011947631836,29.897560119628906,-11.952640533447266,9.471043586730957,97.27159881591797,106.83121490478516,20.544078826904297,-48.64513397216797
2024-02-05 21:44:15.614126-09:00,Blink,23.991416931152344,22.054752349853516,-7.94686222076416,34.12516403198242,114.06988525390625,67.8122787475586,-23.93587875366211,64.51566314697266
2024-02-05 21:44:15.618126-09:00,Blink,24.385847091674805,14.575119018554688,-8.376934051513672,61.319847106933594,117.80905151367188,-0.7875521183013916,10.819575309753418,132.52838134765625
2024-02-05 21:44:15.622126-09:00,Blink,24.369037628173828,8.960190773010254,-5.641796112060547,75.90036010742188,84.6659164428711,-3.4623680114746094,74.36390686035156,157.01324462890625
2024-02-05 21:44:15.626126-09:00,Blink,23.476978302001953,1.1390471458435059,8.75503158569336,94.13951873779297,32.58755874633789,-2.5128817558288574,133.13563537597656,120.25749206542969
2024-02-05 21:44:15.630126-09:00,Blink,22.526514053344727,-2.80440616607666,23.381961822509766,85.66555786132812,-7.682541847229004,38.83664321899414,159.9849090576172,9.866883277893066
2024-02-05 21:44:15.634126-09:00,Blink,22.391845703125,-7.616012096405029,39.531734466552734,72.67784118652344,-32.954349517822266,91.94729614257812,102.88069152832031,-71.66669464111328
2024-02-05 21:44:15.638126-09:00,Blink,21.28910255432129,-9.50173282623291,52.17424011230469,51.59270095825195,-10.733922958374023,150.57740783691406,40.20782470703125,19.49904441833496
2024-02-05 21:44:15.642126-09:00,Blink,20.122467041015625,-7.785249710083008,69.64009857177734,22.559663772583008,20.47040367126465,149.3570556640625,-29.27245330810547,164.57411193847656
2024-02-05 21:44:15.646126-09:00,Blink,18.16777992248535,-4.253875732421875,67.20474243164062,-4.487619876861572,61.660274505615234,95.90227508544922,-8.071965217590332,182.8957977294922
2024-02-05 21:44:15.650126-09:00,Blink,17.080638885498047,-5.242325782775879,74.55447387695312,-21.430187225341797,90.016357421875,34.94240951538086,61.01764678955078,135.3719482421875
2024-02-05 21:44:15.655360-09:00,Blink,15.270027160644531,1.345607042312622,67.70027160644531,-13.40073013305664,116.8198013305664,-38.26716995239258,141.48007202148438,49.52375793457031
2024-02-05 21:44:15.659360-09:00,Blink,13.662521362304688,7.676455497741699,52.95510482788086,-10.536147117614746,115.57167053222656,-7.224094390869141,148.63575744628906,-43.93324661254883
2024-02-05 21:44:15.663360-09:00,Blink,11.696011543273926,13.91525650024414,41.66863250732422,20.499439239501953,73.8116683959961,19.364904403686523,130.83645629882812,47.90129089355469
2024-02-05 21:44:15.667360-09:00,Blink,10.0,21.34945297241211,26.384178161621094,49.90559768676758,34.08803939819336,85.57789611816406,46.29008865356445,122.75004577636719
2024-02-05 21:44:15.671360-09:00,Blink,8.283041954040527,28.65182113647461,11.668885231018066,73.72772979736328,-14.744410514831543,143.13104248046875,-3.3965041637420654,211.0806884765625
2024-02-05 21:44:15.675360-09:00,Blink,6.587403774261475,33.662471771240234,-1.7039766311645508,91.4075927734375,-31.026485443115234,145.9710693359375,-42.363277435302734,175.71591186523438
2024-02-05 21:44:15.679360-09:00,Blink,5.023862838745117,38.44645309448242,-10.620370864868164,86.67505645751953,-23.04212760925293,108.20074462890625,49.99692153930664,56.00004959106445
2024-02-05 21:44:15.683360-09:00,Blink,3.019352674484253,46.6876220703125,-12.51082706451416,88.53948974609375,13.90965461730957,47.847042083740234,145.48651123046875,-45.35251998901367
2024-02-05 21:44:15.687360-09:00,Blink,1.702412486076355,48.080726623535156,-9.509312629699707,70.07508850097656,66.06190490722656,-9.063204765319824,314.6158142089844,-18.96881866455078
2024-02-05 21:44:15.691360-09:00,Blink,-0.14704643189907074,47.618621826171875,-1.9845179319381714,38.569923400878906,97.76206970214844,-44.96530532836914,302.2191467285156,88.2093734741211
2024-02-05 21:44:15.697356-09:00,Blink,-1.1382018327713013,49.03077697753906,11.420013427734375,10.28608512878418,127.26293182373047,-7.181225299835205,103.2549819946289,196.11534118652344
2024-02-05 21:44:15.701356-09:00,Blink,-1.40184485912323,44.77608108520508,28.95167350769043,-11.47584056854248,99.30886840820312,59.900325775146484,-44.728675842285156,212.5781707763672
2024-02-05 21:44:15.705356-09:00,Blink,-2.426193952560425,42.219688415527344,43.850521087646484,-26.604942321777344,85.55238342285156,109.65730285644531,6.280807971954346,84.10113525390625
2024-02-05 21:44:15.709356-09:00,Blink,-3.3313047885894775,35.196998596191406,60.6486930847168,-1.0989990234375,39.290687561035156,164.2037353515625,27.648685455322266,-48.991127014160156
2024-02-05 21:44:15.713356-09:00,Blink,-3.9972434043884277,29.59076690673828,66.71696472167969,7.600124359130859,2.4081311225891113,108.14461517333984,111.20610809326172,-33.7091178894043
2024-02-05 21:44:15.717356-09:00,Blink,-4.269157886505127,22.2828369140625,67.09419250488281,33.762821197509766,-37.713951110839844,72.84650421142578,178.08445739746094,64.3798599243164
2024-02-05 21:44:15.721356-09:00,Blink,-4.118200302124023,14.855324745178223,74.26421356201172,62.2817268371582,-1.169777750968933,25.032583236694336,132.23309326171875,158.3188018798828
2024-02-05 21:44:15.725356-09:00,Blink,-4.020197868347168,8.730344772338867,60.66640090942383,87.17190551757812,27.438278198242188,-13.03585433959961,65.10039520263672,227.60105895996094
2024-02-05 21:44:15.729356-09:00,Blink,-3.857816696166992,2.8042962551116943,50.111392974853516,97.37194061279297,65.56864929199219,-26.406530380249023,11.069517135620117,123.00042724609375
2024-02-05 21:44:15.733356-09:00,Blink,-3.216242551803589,-2.0253913402557373,35.98039627075195,86.78300476074219,90.36897277832031,37.94407272338867,-33.10054016113281,-1.2124918699264526
2024-02-05 21:44:15.739156-09:00,Blink,-2.47522234916687,-5.144603252410889,20.70203399658203,84.49006652832031,126.25746154785156,97.23648834228516,37.46156311035156,-62.99946212768555
2024-02-05 21:44:15.743156-09:00,Blink,-0.5252385139465332,-7.8996500968933105,9.2561674118042,52.88505172729492,124.6539077758789,156.0804901123047,119.25464630126953,22.018482208251953
2024-02-05 21:44:15.747156-09:00,Blink,-0.15570515394210815,-10.194317817687988,-1.277443766593933,23.598684310913086,84.54472351074219,124.98088073730469,197.49317932128906,128.1725311279297
2024-02-05 21:44:15.751156-09:00,Blink,1.3853650093078613,-8.718888282775879,-8.747246742248535,3.623947858810425,37.986698150634766,83.29064178466797,135.31790161132812,150.390869140625
2024-02-05 21:44:15.755156-09:00,Blink,3.332627773284912,-4.555644512176514,-16.74460792541504,-17.257038116455078,-12.026996612548828,35.122825622558594,75.81924438476562,137.0609130859375
2024-02-05 21:44:15.759156-09:00,Blink,4.599844932556152,3.274989128112793,-7.500613212585449,-25.425125122070312,-25.749225616455078,-0.807090163230896,23.510501861572266,48.31767654418945
2024-02-05 21:44:15.763156-09:00,Blink,6.326000213623047,6.952319622039795,6.285365581512451,-0.7317544221878052,-11.851612091064453,-28.493532180786133,-41.30930709838867,9.0386323928833
2024-02-05 21:44:15.767156-09:00,Blink,8.210528373718262,14.781414031982422,19.378149032592773,21.408842086791992,25.734174728393555,8.618176460266113,22.160493850708008,-10.376827239990234
2024-02-05 21:44:15.771156-09:00,Blink,10.0,21.313858032226562,34.00514221191406,49.42924118041992,61.13152313232422,75.4605712890625,102.67432403564453,105.87800598144531
2024-02-05 21:44:15.771728-09:00,Blink,13.684822082519531,34.54764938354492,59.032257080078125,81.92250061035156,134.5345001220703,167.46786499023438,153.21249389648438,151.0591583251953
2024-02-05 21:44:15.775156-09:00,Blink,11.737092971801758,27.949132919311523,52.15924835205078,69.7559814453125,96.87478637695312,124.66957092285156,163.52932739257812,196.87644958496094
2024-02-05 21:44:15.775728-09:00,Blink,15.214164733886719,40.61839294433594,69.40502166748047,98.33734893798828,110.09027099609375,117.9094009399414,92.65739440917969,125.74478149414062
2024-02-05 21:44:15.779728-09:00,Blink,16.915855407714844,43.48183822631836,72.1761474609375,89.3433609008789,73.81140899658203,46.680259704589844,4.941394329071045,-34.7382698059082
2024-02-05 21:44:15.783728-09:00,Blink,18.283031463623047,48.32049560546875,74.5302963256836,61.38349151611328,39.056400299072266,-5.233741760253906,-42.822540283203125,-50.35798645019531
2024-02-05 21:44:15.787728-09:00,Blink,19.513551712036133,50.12580108642578,60.66907501220703,38.536720275878906,-7.482273101806641,-34.361061096191406,15.958138465881348,93.51128387451172
2024-02-05 21:44:15.791728-09:00,Blink,21.42664909362793,48.506797790527344,48.65264129638672,11.83292007446289,-37.00525665283203,10.980385780334473,89.2071304321289,171.85162353515625
2024-02-05 21:44:15.795728-09:00,Blink,21.493072509765625,46.52523422241211,30.96420669555664,-2.1765925884246826,3.605105400085449,59.8894157409668,184.8873748779297,171.50674438476562
2024-02-05 21:44:15.799728-09:00,Blink,23.201974868774414,41.78868865966797,14.90173053741455,-14.503751754760742,26.604154586791992,101.81519317626953,145.29995727539062,82.15391540527344
2024-02-05 21:44:15.803728-09:00,Blink,22.969900131225586,36.1279182434082,1.2163152694702148,-6.208330154418945,63.937164306640625,120.03426361083984,103.21866607666016,-12.623159408569336
2024-02-05 21:44:15.807728-09:00,Blink,23.561634063720703,29.107179641723633,-5.315398693084717,5.0359320640563965,104.8122329711914,111.44015502929688,7.437667369842529,-2.570910930633545
2024-02-05 21:44:15.813433-09:00,Blink,23.64160919189453,21.95473289489746,-7.620492458343506,34.105613708496094,106.39556121826172,68.09722900390625,-24.78816032409668,58.856327056884766
2024-02-05 21:44:15.817433-09:00,Blink,24.44765281677246,15.092995643615723,-13.209393501281738,60.259098052978516,118.82096099853516,17.353029251098633,15.762517929077148,192.89788818359375
2024-02-05 21:44:15.821433-09:00,Blink,24.386510848999023,8.906261444091797,1.4449248313903809,90.91770935058594,78.44682312011719,-3.1149954795837402,73.55084228515625,157.24232482910156
2024-02-05 21:44:15.825433-09:00,Blink,23.32674789428711,0.9590921998023987,11.549849510192871,99.56793975830078,35.388675689697266,-12.921232223510742,349.85821533203125,115.00702667236328
2024-02-05 21:44:15.829433-09:00,Blink,22.683982849121094,-3.9527032375335693,24.286251068115234,95.30496978759766,-14.267783164978027,38.879249572753906,386.4125061035156,29.203500747680664
2024-02-05 21:44:15.833433-09:00,Blink,22.414474487304688,-4.608189105987549,39.47394943237305,74.72954559326172,-18.512218475341797,98.38836669921875,198.02381896972656,-41.54908752441406
2024-02-05 21:44:15.837433-09:00,Blink,20.418766021728516,-10.71783447265625,51.43221664428711,51.528953552246094,-10.328179359436035,121.3998031616211,22.89031982421875,20.84510040283203
2024-02-05 21:44:15.841433-09:00,Blink,19.852313995361328,-10.244386672973633,63.95914840698242,23.223691940307617,20.514162063598633,126.98533630371094,-52.18263626098633,132.54739379882812
2024-02-05 21:44:15.845433-09:00,Blink,18.2033748626709,-5.511034965515137,66.62490844726562,-0.6237665414810181,64.74958038330078,100.43843078613281,-20.910791397094727,191.39559936523438
2024-02-05 21:44:15.849433-09:00,Blink,16.53374481201172,-1.4382795095443726,76.46167755126953,-4.348947525024414,102.93319702148438,21.747037887573242,59.79763412475586,116.36951446533203
2024-02-05 21:44:15.853641-09:00,Blink,15.422257423400879,1.3050881624221802,68.34525299072266,-17.83403205871582,112.15495300292969,-30.688444137573242,124.81307983398438,38.536781311035156
2024-02-05 21:44:15.857641-09:00,Blink,13.414894104003906,7.013444423675537,52.48851776123047,1.6675045490264893,114.79920196533203,-42.28362274169922,168.2192840576172,-41.626216888427734
2024-02-05 21:44:15.861641-09:00,Blink,11.753028869628906,14.527478218078613,42.84931182861328,17.125181198120117,80.5185317993164,10.017964363098145,124.7148208618164,30.433624267578125
2024-02-05 21:44:15.865641-09:00,Blink,10.0,21.36393928527832,25.887489318847656,48.524295806884766,32.78688049316406,83.2826919555664,32.83781051635742,118.64463806152344
2024-02-05 21:44:15.869641-09:00,Blink,8.30427360534668,29.05767059326172,8.275324821472168,79.79256439208984,10.499341011047363,113.48229217529297,-38.25893020629883,147.6239013671875
2024-02-05 21:44:15.873641-09:00,Blink,6.539188385009766,35.54511260986328,2.352708339691162,96.3245620727539,-35.676368713378906,167.17538452148438,-41.29472351074219,127.88838958740234
2024-02-05 21:44:15.877641-09:00,Blink,4.769775390625,39.904449462890625,-7.08378791809082,91.66619110107422,-18.32379913330078,100.3549575805664,49.39705276489258,63.160972595214844
2024-02-05 21:44:15.881641-09:00,Blink,3.2580313682556152,44.39004135131836,-11.97488784790039,89.13311767578125,22.26161766052246,49.745853424072266,115.15652465820312,-59.51095962524414
2024-02-05 21:44:15.885641-09:00,Blink,1.903229832649231,46.402793884277344,-11.63912296295166,61.81442642211914,62.622840881347656,9.0413818359375,195.58163452148438,-5.353919982910156
2024-02-05 21:44:15.889641-09:00,Blink,0.6834266185760498,49.110023498535156,-1.96198570728302,38.453739166259766,98.90928649902344,-1.4963269233703613,128.8260040283203,86.99102020263672
2024-02-05 21:44:15.893633-09:00,Blink,-1.2994250059127808,48.01096725463867,11.653645515441895,8.850591659545898,115.7182846069336,16.491697311401367,58.71377944946289,153.22402954101562
2024-02-05 21:44:15.897633-09:00,Blink,-1.540034532546997,45.88027572631836,28.904714584350586,-6.217658042907715,115.6593017578125,59.868858337402344,-36.17839431762695,143.83982849121094
2024-02-05 21:44:15.901633-09:00,Blink,-3.1258809566497803,41.780921936035156,43.486148834228516,-26.690235137939453,84.55219268798828,120.91510772705078,-35.493560791015625,163.47927856445312
2024-02-05 21:44:15.905633-09:00,Blink,-3.3796470165252686,35.69121170043945,59.187625885009766,-15.647619247436523,34.848270416259766,169.6920928955078,45.744930267333984,-59.871883392333984
2024-02-05 21:44:15.909633-09:00,Blink,-3.5570380687713623,28.335941314697266,72.04637145996094,4.668280601501465,-13.795597076416016,142.81234741210938,120.94632720947266,-64.72976684570312
2024-02-05 21:44:15.913633-09:00,Blink,-3.8582823276519775,22.337583541870117,75.5853500366211,34.71352005004883,-17.731420516967773,72.50885009765625,166.37310791015625,62.42213439941406
2024-02-05 21:44:15.917633-09:00,Blink,-3.8997535705566406,14.949324607849121,76.46321868896484,58.19399642944336,-11.799812316894531,23.134185791015625,132.72357177734375,174.98448181152344
2024-02-05 21:44:15.921633-09:00,Blink,-3.7006123065948486,8.302647590637207,58.66362380981445,85.86520385742188,19.625837326049805,-13.134317398071289,66.30488586425781,157.6802520751953
2024-02-05 21:44:15.925633-09:00,Blink,-4.002796173095703,2.7968802452087402,54.44294738769531,97.29409790039062,63.15208435058594,-10.917759895324707,-10.23835563659668,105.70518493652344
2024-02-05 21:44:15.929633-09:00,Blink,-2.278144121170044,-1.9319331645965576,36.993064880371094,93.01469421386719,112.59285736083984,42.93660354614258,-38.87519836425781,-10.948369026184082
2024-02-05 21:44:15.935101-09:00,Blink,-2.1276979446411133,-6.814128398895264,21.361528396606445,79.03596496582031,118.1239013671875,91.5418472290039,20.297088623046875,-54.66561508178711
2024-02-05 21:44:15.939101-09:00,Blink,-0.44206109642982483,-10.107322692871094,5.46114444732666,52.59675216674805,106.04611206054688,151.3028106689453,110.91108703613281,48.31764221191406
2024-02-05 21:44:15.943101-09:00,Blink,0.029461383819580078,-10.130973815917969,-9.314698219299316,24.806079864501953,76.81257629394531,137.8064422607422,145.49282836914062,135.23777770996094
2024-02-05 21:44:15.947101-09:00,Blink,1.6900697946548462,-8.149662017822266,-6.4170942306518555,1.2594629526138306,33.46995544433594,98.11146545410156,172.9554901123047,179.13824462890625
2024-02-05 21:44:15.951101-09:00,Blink,3.3043301105499268,-1.509998083114624,-14.798003196716309,-18.021095275878906,2.7124717235565186,27.83901596069336,78.63607788085938,119.65443420410156
2024-02-05 21:44:15.955101-09:00,Blink,4.827572822570801,0.3835344910621643,-6.404250621795654,-20.253816604614258,-10.15925407409668,-17.46534538269043,19.178836822509766,20.734600067138672
2024-02-05 21:44:15.959101-09:00,Blink,6.528588771820068,7.54591178894043,0.7151495814323425,-7.119314670562744,-6.569008827209473,-21.800622940063477,-34.100685119628906,-20.1583251953125
2024-02-05 21:44:15.963101-09:00,Blink,8.147377014160156,13.783788681030273,17.65460777282715,24.347686767578125,14.685104370117188,25.451324462890625,26.24017906188965,20.126113891601562
2024-02-05 21:44:15.967101-09:00,Blink,10.0,21.397708892822266,33.70426940917969,48.97300720214844,62.70344161987305,76.2437744140625,198.21327209472656,132.35720825195312
2024-02-05 21:44:15.971101-09:00,Blink,11.841485977172852,27.82780647277832,50.21733093261719,80.80426025390625,105.266357421875,137.37464904785156,349.375244140625,192.4158172607422
2024-02-05 21:44:15.976912-09:00,Blink,13.400666236877441,34.81754684448242,66.36983489990234,89.40398406982422,131.90869140625,143.13809204101562,349.8074035644531,130.42965698242188
2024-02-05 21:44:15.980912-09:00,Blink,14.966453552246094,40.40244674682617,75.82695007324219,103.18413543701172,106.7541275024414,116.55392456054688,84.94185638427734,64.40218353271484
2024-02-05 21:44:15.984912-09:00,Blink,16.93866729736328,45.09060287475586,68.1036148071289,94.10308837890625,73.8314208984375,50.546165466308594,13.82780933380127,-37.731624603271484
2024-02-05 21:44:15.988912-09:00,Blink,17.911056518554688,48.96413040161133,63.34248733520508,61.85651397705078,32.495670318603516,5.724526405334473,-20.8554744720459,-38.26126480102539
2024-02-05 21:44:15.992912-09:00,Blink,19.585363388061523,49.365718841552734,57.80099105834961,38.510009765625,-4.6168365478515625,-36.08934020996094,17.800710678100586,87.26490783691406
2024-02-05 21:44:15.996912-09:00,Blink,21.31326675415039,45.1500244140625,45.89815902709961,6.840359210968018,-24.454334259033203,12.201598167419434,83.67279815673828,185.0399627685547
2024-02-05 21:44:16.000912-09:00,Blink,21.635072708129883,44.38217544555664,31.166292190551758,-15.337930679321289,-19.985591888427734,59.8613166809082,167.8799591064453,197.52024841308594
2024-02-05 21:44:16.004912-09:00,Blink,22.320205688476562,41.48102951049805,17.559852600097656,-24.42743682861328,18.124845504760742,115.51774597167969,153.246337890625,82.40255737304688
2024-02-05 21:44:16.008912-09:00,Blink,23.34946060180664,34.33557891845703,1.4120900630950928,-2.219830274581909,62.38237380981445,160.74893188476562,105.0758285522461,-41.1663703918457
2024-02-05 21:44:16.012912-09:00,Blink,24.41377067565918,29.044429779052734,-5.178956985473633,1.7329219579696655,104.96977996826172,109.8253402709961,12.323136329650879,-49.259429931640625
2024-02-05 21:44:16.016346-09:00,Blink,23.79291534423828,21.947290420532227,-6.8021745681762695,34.38557052612305,106.87330627441406,72.46385955810547,-1.663810133934021,65.0047836303711
2024-02-05 21:44:16.020346-09:00,Blink,23.763164520263672,14.683483123779297,-6.272671222686768,57.75724792480469,116.39836883544922,4.164832592010498,-19.288850784301758,149.2516632080078
2024-02-05 21:44:16.024346-09:00,Blink,23.45366859436035,8.939850807189941,-6.80203104019165,82.01419067382812,76.9725570678711,-15.990227699279785,74.84662628173828,178.9537353515625
2024-02-05 21:44:16.028346-09:00,Blink,23.651613235473633,2.1498465538024902,5.559174537658691,90.86958312988281,38.63858413696289,-12.123503684997559,140.75926208496094,228.59950256347656
2024-02-05 21:44:16.032346-09:00,Blink,23.072528839111328,-3.319884777069092,24.27347755432129,85.58940124511719,-14.237547874450684,35.552330017089844,147.7658233642578,2.4932637214660645
2024-02-05 21:44:16.036346-09:00,Blink,22.28571891784668,-4.692843914031982,38.27738571166992,71.26459503173828,-32.022682189941406,96.77359771728516,123.39390563964844,-20.343740463256836
2024-02-05 21:44:16.040346-09:00,Blink,20.84462547302246,-7.8300042152404785,50.59260559082031,53.32758712768555,3.088738441467285,141.28724670410156,34.350791931152344,33.07085418701172
2024-02-05 21:44:16.044346-09:00,Blink,19.641807556152344,-9.811362266540527,63.794097900390625,27.502946853637695,26.5620059967041,151.66246032714844,-29.369497299194336,131.840087890625
2024-02-05 21:44:16.048346-09:00,Blink,18.715333938598633,-8.945904731750488,71.16400909423828,2.7597105503082275,65.9469223022461,92.04873657226562,7.450345993041992,236.8474884033203
2024-02-05 21:44:16.052346-09:00,Blink,16.586915969848633,-3.064368486404419,76.59490203857422,-12.825927734375,90.0611343383789,30.7235164642334,62.772254943847656,139.03057861328125
2024-02-05 21:44:16.057555-09:00,Blink,15.252853393554688,3.3092212677001953,68.17872619628906,-4.732158184051514,123.79106903076172,-24.93132781982422,128.4736785888672,39.781463623046875
2024-02-05 21:44:16.061555-09:00,Blink,13.37277889251709,8.702914237976074,57.24657440185547,-1.0679882764816284,107.97126770019531,-7.801178932189941,158.73069763183594,-14.125345230102539
2024-02-05 21:44:16.065555-09:00,Blink,11.73259162902832,14.368963241577148,41.2249641418457,18.689952850341797,82.60733032226562,16.048988342285156,128.50759887695312,10.186423301696777
2024-02-05 21:44:16.069555-09:00,Blink,10.0,21.434253692626953,25.470287322998047,46.97584533691406,36.97880935668945,78.27533721923828,39.8703498840332,118.15129852294922
2024-02-05 21:44:16.073555-09:00,Blink,8.154465675354004,28.245542526245117,13.27254581451416,67.74646759033203,-3.5732314586639404,137.83474731445312,-46.549320220947266,204.0716552734375
2024-02-05 21:44:16.077555-09:00,Blink,6.607967853546143,34.33407974243164,1.6595004796981812,97.122802734375,-21.404991149902344,129.9693603515625,-16.041301727294922,150.1913604736328
2024-02-05 21:44:16.081555-09:00,Blink,4.825205326080322,38.72038269042969,-6.386795997619629,102.56884765625,2.729025363922119,110.77571105957031,47.41798400878906,54.466468811035156
2024-02-05 21:44:16.085555-09:00,Blink,3.0746243000030518,46.98917770385742,-7.210987567901611,77.85597229003906,27.285036087036133,52.227294921875,134.31768798828125,4.308490753173828
2024-02-05 21:44:16.089555-09:00,Blink,1.7618530988693237,49.73745346069336,-13.101313591003418,65.74526977539062,66.5076675415039,-19.42046546936035,135.53321838378906,-11.340121269226074
2024-02-05 21:44:16.093555-09:00,Blink,0.5828357934951782,47.574745178222656,0.5642238259315491,38.66508102416992,93.11946105957031,-16.81757354736328,136.58245849609375,95.45242309570312
2024-02-05 21:44:16.097323-09:00,Blink,-1.2633448839187622,49.5374641418457,11.240717887878418,12.339705467224121,103.81922912597656,10.63805103302002,57.73960876464844,203.5826873779297
2024-02-05 21:44:16.101323-09:00,Blink,-2.027099847793579,42.504722595214844,29.00615882873535,-10.709013938903809,124.6356201171875,59.89818572998047,-12.96304702758789,210.36390686035156
2024-02-05 21:44:16.105323-09:00,Blink,-3.098911762237549,38.846370697021484,43.58314895629883,-9.201441764831543,83.54736328125,133.7145233154297,-34.19877243041992,82.31216430664062
2024-02-05 21:44:16.109323-09:00,Blink,-3.6230456829071045,33.94038772583008,62.03648376464844,-13.737482070922852,39.40662384033203,120.74048614501953,60.27456283569336,-34.09949493408203
2024-02-05 21:44:16.113323-09:00,Blink,-3.8119146823883057,28.31483268737793,70.45327758789062,1.9945002794265747,-10.077787399291992,143.76136779785156,228.4248046875,-5.7522993087768555
2024-02-05 21:44:16.117323-09:00,Blink,-3.804428815841675,22.261219024658203,67.50518798828125,34.52110290527344,-3.390024185180664,73.22909545898438,325.56982421875,67.2021255493164
2024-02-05 21:44:16.121323-09:00,Blink,-4.2912468910217285,14.732369422912598,67.31610107421875,63.587100982666016,-12.443300247192383,6.159913539886475,167.5890350341797,159.64707946777344
2024-02-05 21:44:16.125323-09:00,Blink,-3.984802484512329,7.39469575881958,60.63886260986328,91.40354919433594,14.112452507019043,-9.177397727966309,63.843109130859375,167.52322387695312
2024-02-05 21:44:16.129323-09:00,Blink,-3.8273115158081055,3.953312397003174,53.3679084777832,91.60108947753906,63.54057693481445,0.20478984713554382,-23.675020217895508,117.98377227783203
2024-02-05 21:44:16.133323-09:00,Blink,-2.5797665119171143,-3.8219542503356934,36.89968490600586,93.76358795166016,89.6141586303711,32.53078079223633,-1.191064476966858,29.590530395507812
2024-02-05 21:44:16.137477-09:00,Blink,-2.1405601501464844,-8.0068941116333,20.155458450317383,74.1071548461914,120.69363403320312,100.46283721923828,33.64873504638672,-22.524824142456055
2024-02-05 21:44:16.141477-09:00,Blink,-1.0084534883499146,-5.78972864151001,2.647461414337158,53.357337951660156,98.8114242553711,155.39820861816406,102.91580963134766,34.29865646362305
2024-02-05 21:44:16.145477-09:00,Blink,-0.13643650710582733,-9.878803253173828,-6.133210182189941,24.394838333129883,84.05670166015625,124.34306335449219,160.70245361328125,147.93197631835938
2024-02-05 21:44:16.149477-09:00,Blink,1.2865961790084839,-7.3403825759887695,-15.860424995422363,7.325685501098633,34.06587219238281,93.36814880371094,153.78021240234375,194.9426727294922
2024-02-05 21:44:16.153477-09:00,Blink,3.3292341232299805,-3.6669788360595703,-12.091341018676758,-19.447019577026367,-9.19374942779541,36.559051513671875,75.54851531982422,260.677490234375
2024-02-05 21:44:16.157477-09:00,Blink,4.79021692276001,2.091003179550171,-9.507294654846191,-11.885331153869629,-5.281233787536621,-20.48043441772461,18.94460678100586,67.31660461425781
2024-02-05 21:44:16.161477-09:00,Blink,6.508005142211914,8.653132438659668,4.627479076385498,2.712146043777466,-17.80815887451172,-15.610017776489258,-29.208271026611328,-44.32657241821289
2024-02-05 21:44:16.165477-09:00,Blink,8.155951499938965,13.798503875732422,18.047231674194336,18.456214904785156,17.76289176940918,16.887685775756836,29.192983627319336,17.809337615966797
2024-02-05 21:44:16.169477-09:00,Blink,10.0,21.39679718017578,33.805870056152344,48.380096435546875,66.19735717773438,83.05034637451172,95.371826171875,126.04790496826172
2024-02-05 21:44:16.172114-09:00,Blink,13.368786811828613,33.53872299194336,60.44287872314453,97.12005615234375,125.58439636230469,159.97755432128906,134.33689880371094,176.6642608642578
2024-02-05 21:44:16.173477-09:00,Blink,11.732136726379395,28.37801742553711,50.517242431640625,77.95435333251953,96.18840026855469,129.79197692871094,177.0055389404297,153.10104370117188
2024-02-05 21:44:16.176114-09:00,Blink,15.450882911682129,38.586368560791016,65.37178802490234,97.74855041503906,102.06837463378906,105.97457122802734,95.92971801757812,53.52543640136719
2024-02-05 21:44:16.180114-09:00,Blink,16.623979568481445,42.16426467895508,74.95405578613281,93.07455444335938,78.10051727294922,48.40423583984375,21.3375244140625,-29.57906723022461
2024-02-05 21:44:16.184114-09:00,Blink,18.311655044555664,46.39855194091797,70.31206512451172,65.28865814208984,36.22590637207031,0.695594310760498,-42.44672775268555,-28.944700241088867
2024-02-05 21:44:16.188114-09:00,Blink,20.007160186767578,47.622196197509766,58.27876281738281,38.458091735839844,-10.00389575958252,-27.069263458251953,17.85065460205078,90.67794036865234
2024-02-05 21:44:16.192114-09:00,Blink,21.0605525970459,48.441612243652344,48.97205352783203,12.929290771484375,-24.909881591796875,0.10912885516881943,89.08848571777344,149.3893585205078
2024-02-05 21:44:16.196114-09:00,Blink,22.20488739013672,44.109519958496094,31.107192993164062,-6.113317012786865,-26.108179092407227,59.9058723449707,128.9109649658203,153.468505859375
2024-02-05 21:44:16.200114-09:00,Blink,22.66656494140625,42.220542907714844,17.537525177001953,-27.55990982055664,23.196840286254883,105.94338989257812,150.70628356933594,84.24942016601562
2024-02-05 21:44:16.204114-09:00,Blink,23.796283721923828,35.56401062011719,1.142374038696289,-13.119725227355957,60.5825309753418,151.69818115234375,112.19542694091797,-17.981983184814453
2024-02-05 21:44:16.208114-09:00,Blink,24.353670120239258,28.246524810791016,-2.2721190452575684,13.527589797973633,110.2084732055664,111.52549743652344,0.5038796663284302,-45.888057708740234
2024-02-05 21:44:16.212252-09:00,Blink,24.03768539428711,22.102128982543945,-16.183923721313477,33.237571716308594,137.1024169921875,72.69332885742188,-0.38395005464553833,62.19982147216797
2024-02-05 21:44:16.216252-09:00,Blink,23.648590087890625,15.113037109375,-11.759520530700684,66.38421630859375,110.97915649414062,2.1169047355651855,3.1399762630462646,159.38467407226562
2024-02-05 21:44:16.220252-09:00,Blink,23.42730712890625,7.883542537689209,-2.6214916706085205,89.48995208740234,76.7601318359375,-25.078107833862305,74.09980010986328,196.6658935546875
2024-02-05 21:44:16.224252-09:00,Blink,23.473012924194336,2.3781750202178955,5.927309036254883,104.69478607177734,33.532081604003906,7.919266223907471,147.0811004638672,108.8217544555664
2024-02-05 21:44:16.228252-09:00,Blink,22.935197830200195,-2.619046211242676,23.687763214111328,102.30261993408203,5.987424373626709,43.4490852355957,183.2568817138672,27.396303176879883
2024-02-05 21:44:16.232252-09:00,Blink,22.017709732055664,-5.212037086486816,38.7794303894043,83.50645446777344,-30.391096115112305,105.34297943115234,117.46253967285156,-24.878355026245117
2024-02-05 21:44:16.236252-09:00,Blink,20.680683135986328,-9.117365837097168,52.57869338989258,52.65138244628906,-21.33992576599121,130.2891387939453,34.09442901611328,27.175750732421875
2024-02-05 21:44:16.240252-09:00,Blink,19.540699005126953,-8.794391632080078,68.21443176269531,24.769290924072266,18.016660690307617,158.90000915527344,-55.76130294799805,162.9967041015625
2024-02-05 21:44:16.244252-09:00,Blink,18.65385627746582,-8.880855560302734,76.9281997680664,-0.8112592697143555,65.86132049560547,82.22843170166016,-21.398595809936523,220.8614044189453
2024-02-05 21:44:16.248252-09:00,Blink,16.618793487548828,-2.6606321334838867,71.50645446777344,-13.777000427246094,91.29478454589844,25.251266479492188,129.37408447265625,158.623046875
2024-02-05 21:44:16.253091-09:00,Blink,15.223182678222656,3.311633348464966,61.94290542602539,-8.060371398925781,120.25473022460938,-36.9715461730957,315.1348876953125,32.42747497558594
2024-02-05 21:44:16.257091-09:00,Blink,13.442849159240723,6.824314594268799,58.433837890625,-10.100910186767578,97.74805450439453,-21.14699363708496,167.3978729248047,-23.464731216430664
2024-02-05 21:44:16.261091-09:00,Blink,11.802420616149902,14.54216194152832,40.04703140258789,21.01357078552246,86.33089447021484,26.021259307861328,131.28292846679688,31.888803482055664
2024-02-05 21:44:16.265091-09:00,Blink,10.0,21.32635498046875,25.339763641357422,49.63385772705078,34.72126388549805,79.46348571777344,36.028045654296875,121.6997299194336
2024-02-05 21:44:16.269091-09:00,Blink,8.262313842773438,28.461299896240234,12.024964332580566,69.2699203491211,-13.188385009765625,125.64537048339844,-8.425837516784668,191.94642639160156
2024-02-05 21:44:16.273091-09:00,Blink,6.50702428817749,35.28248596191406,-3.7096023559570312,92.99434661865234,-24.452735900878906,148.2439422607422,-26.353534698486328,320.2310485839844
2024-02-05 21:44:16.277091-09:00,Blink,4.617066860198975,39.51366424560547,-5.290002822875977,85.30462646484375,-21.155776977539062,113.81063842773438,48.1813850402832,125.66988372802734
2024-02-05 21:44:16.281091-09:00,Blink,2.8472483158111572,47.00337219238281,-9.852548599243164,82.41677856445312,19.972326278686523,51.89421844482422,128.16236877441406,-50.437435150146484
2024-02-05 21:44:16.285091-09:00,Blink,2.018927574157715,47.67267608642578,-3.148824453353882,63.97494125366211,63.77637481689453,0.8890416622161865,138.49240112304688,-25.71843147277832
2024-02-05 21:44:16.289091-09:00,Blink,0.7307959198951721,46.32046127319336,1.9145712852478027,38.74699401855469,91.55488586425781,-9.823763847351074,135.21730041503906,95.01347351074219
2024-02-05 21:44:16.294837-09:00,Blink,-0.9535607099533081,49.26952362060547,14.238303184509277,16.129247665405273,122.47557830810547,-11.923888206481934,50.306251525878906,194.5673370361328
2024-02-05 21:44:16.298837-09:00,Blink,-1.8028490543365479,42.601078033447266,28.97544288635254,-3.5396995544433594,111.43736267089844,59.91709518432617,-38.155738830566406,156.17210388183594
2024-02-05 21:44:16.302837-09:00,Blink,-2.267503261566162,39.187469482421875,44.000274658203125,-27.598201751708984,76.34699249267578,128.81759643554688,-13.687664031982422,83.37310028076172
2024-02-05 21:44:16.306837-09:00,Blink,-3.2407002449035645,35.42774200439453,57.368473052978516,-9.410937309265137,37.865413665771484,148.0502471923828,39.519649505615234,-29.8219051361084
2024-02-05 21:44:16.310837-09:00,Blink,-4.068148612976074,29.043041229248047,69.0444564819336,2.6000819206237793,-2.954817533493042,120.39112091064453,130.00624084472656,-63.16376495361328
2024-02-05 21:44:16.314837-09:00,Blink,-4.0925164222717285,21.96702766418457,69.74259948730469,33.26342010498047,-12.06359577178955,73.20344543457031,149.21377563476562,67.28646087646484
2024-02-05 21:44:16.318837-09:00,Blink,-4.019558906555176,14.912075996398926,75.23697662353516,63.02852249145508,-6.398865699768066,-0.06930037587881088,122.82965850830078,178.70530700683594
2024-02-05 21:44:16.322837-09:00,Blink,-4.212716102600098,8.06277084350586,65.8679428100586,88.87889099121094,24.84808349609375,-46.55998229980469,64.1146469116211,184.3537139892578
2024-02-05 21:44:16.326837-09:00,Blink,-3.60624098777771,1.273766279220581,50.2223014831543,86.02305603027344,62.69089889526367,3.7087273597717285,-12.637116432189941,104.1556625366211
2024-02-05 21:44:16.330837-09:00,Blink,-3.0219531059265137,-4.480289459228516,35.966529846191406,96.05575561523438,100.3564682006836,40.872711181640625,-33.57107925415039,-21.690994262695312
2024-02-05 21:44:16.334608-09:00,Blink,-1.6934651136398315,-5.588752746582031,20.126237869262695,79.0514907836914,125.71070098876953,110.99069213867188,27.84292984008789,-76.11437225341797
2024-02-05 21:44:16.338608-09:00,Blink,-0.44855931401252747,-8.89313793182373,3.958684206008911,52.73393249511719,97.80867004394531,164.61746215820312,103.21249389648438,33.775020599365234
2024-02-05 21:44:16.342608-09:00,Blink,0.19495892524719238,-7.431941032409668,-10.362561225891113,25.0128116607666,81.4480972290039,152.2823028564453,157.8760528564453,165.72048950195312
2024-02-05 21:44:16.346608-09:00,Blink,2.0358333587646484,-6.0141215324401855,-6.180552959442139,3.950680732727051,38.694366455078125,85.57453918457031,173.87669372558594,236.4142608642578
2024-02-05 21:44:16.350608-09:00,Blink,3.0522050857543945,-5.007784843444824,-6.6425981521606445,-20.09099006652832,3.3680882453918457,37.705299377441406,76.5453872680664,150.6521759033203
2024-02-05 21:44:16.354608-09:00,Blink,4.864227771759033,0.1649829000234604,-1.8585634231567383,-13.979395866394043,-32.276451110839844,-15.855730056762695,18.60523796081543,19.51421356201172
2024-02-05 21:44:16.358608-09:00,Blink,6.531019687652588,7.285821914672852,1.9199111461639404,-6.138683319091797,-21.99715232849121,-33.69723892211914,-31.479488372802734,-3.6300342082977295
2024-02-05 21:44:16.362608-09:00,Blink,8.286360740661621,13.931716918945312,18.45685577392578,23.39112663269043,27.02235984802246,19.982065200805664,12.805123329162598,-1.1245850324630737
2024-02-05 21:44:16.366608-09:00,Blink,10.0,21.530996322631836,33.89609909057617,49.66701889038086,60.58443069458008,84.93011474609375,92.93563079833984,110.138427734375
2024-02-05 21:44:16.370608-09:00,Blink,11.753357887268066,28.889848709106445,48.58272933959961,74.034423828125,104.85192108154297,151.0406036376953,131.29661560058594,146.81857299804688
2024-02-05 21:44:16.376651-09:00,Blink,13.463732719421387,35.35265350341797,61.198143005371094,93.38817596435547,128.07376098632812,147.0537567138672,138.87168884277344,176.19786071777344
2024-02-05 21:44:16.380651-09:00,Blink,15.103109359741211,42.0438232421875,69.15314483642578,100.76683044433594,123.6917724609375,105.48465728759766,88.74067687988281,55.2364501953125
2024-02-05 21:44:16.384651-09:00,Blink,17.004838943481445,43.357505798339844,66.23931121826172,80.92811584472656,79.17082977294922,52.26834487915039,23.17083740234375,-24.80388069152832
2024-02-05 21:44:16.388651-09:00,Blink,18.085420608520508,47.36384201049805,65.7942886352539,64.80618286132812,37.81645202636719,9.627958297729492,-75.99679565429688,-10.634395599365234
2024-02-05 21:44:16.392651-09:00,Blink,19.979089736938477,47.023109436035156,63.525184631347656,38.7773323059082,0.7425816655158997,-45.28834533691406,32.767677307128906,90.5372085571289
2024-02-05 21:44:16.396651-09:00,Blink,21.321332931518555,47.537109375,44.690364837646484,15.358808517456055,-10.876659393310547,14.1830415725708,180.78114318847656,181.1319580078125
2024-02-05 21:44:16.400651-09:00,Blink,22.298627853393555,47.097686767578125,31.17209243774414,-9.548633575439453,-16.09001922607422,59.860633850097656,145.4839630126953,386.4250183105469
