Timestamp,Label,EEG_1,EEG_2,EEG_3,EEG_4,EEG_5,EEG_6,EEG_7,EEG_8
2024-02-05 21:44:20.817377-09:00,,23.42864990234375,22.095718383789062,-14.742840766906738,34.69249725341797,125.46961212158203,67.5608901977539,-90.1774673461914,66.1634292602539
2024-02-05 21:44:20.821377-09:00,,23.825275421142578,15.221269607543945,-8.712333679199219,63.214202880859375,122.30630493164062,7.887567520141602,-7.578800678253174,168.9491424560547
2024-02-05 21:44:20.825377-09:00,,23.54661750793457,7.602522373199463,-5.742535591125488,90.624755859375,78.51902770996094,-25.001815795898438,76.00902557373047,156.7493133544922
2024-02-05 21:44:20.829377-09:00,,23.564489364624023,0.991285502910614,7.338649749755859,106.86329650878906,38.651554107666016,-4.840239524841309,132.488037109375,115.0773696899414
2024-02-05 21:44:20.833377-09:00,,22.757097244262695,-4.363780498504639,23.36624526977539,83.35054779052734,9.877458572387695,36.349143981933594,197.0967254638672,-14.715997695922852
2024-02-05 21:44:20.837377-09:00,,22.346580505371094,-6.388572692871094,40.85546112060547,82.02934265136719,-32.39399719238281,102.14849853515625,114.39429473876953,-2.248478651046753
2024-02-05 21:44:20.841377-09:00,,20.677148818969727,-7.494498252868652,51.850154876708984,53.46321487426758,-7.957189083099365,154.7444305419922,31.146530151367188,26.270366668701172
2024-02-05 21:44:20.845377-09:00,,19.65120506286621,-8.063608169555664,67.6546859741211,21.72933578491211,27.702951431274414,147.48446655273438,-17.071640014648438,132.77606201171875
2024-02-05 21:44:20.849377-09:00,,18.173097610473633,-7.792485237121582,71.55728149414062,-1.6869205236434937,65.73020935058594,83.63446807861328,-16.724517822265625,156.85540771484375
2024-02-05 21:44:20.853377-09:00,,16.853153228759766,-4.299618721008301,67.12657165527344,-13.583953857421875,94.16434478759766,36.32190704345703,63.96173095703125,140.2969512939453
2024-02-05 21:44:20.859428-09:00,,15.189846992492676,0.6092037558555603,69.62334442138672,-22.17747688293457,103.5718002319336,-13.94009017944336,120.37435150146484,34.879554748535156
2024-02-05 21:44:20.863428-09:00,,13.391063690185547,8.332523345947266,57.35565185546875,0.5250198841094971,123.86588287353516,0.6238633394241333,189.54071044921875,-33.081993103027344
2024-02-05 21:44:20.867428-09:00,,11.80540657043457,14.175275802612305,40.77885437011719,22.83209800720215,83.12882995605469,22.60733985900879,141.76010131835938,26.32967758178711
2024-02-05 21:44:20.871428-09:00,,10.0,21.51502799987793,25.69530487060547,47.373966217041016,38.31486129760742,83.85352325439453,44.66792297363281,114.81182098388672
2024-02-05 21:44:20.875428-09:00,,8.225604057312012,27.799909591674805,10.442663192749023,72.51020050048828,3.5976908206939697,143.0570068359375,-10.6092529296875,219.9285430908203
2024-02-05 21:44:20.879428-09:00,,6.650518894195557,35.47890853881836,-1.0374133586883545,96.45794677734375,-36.11418533325195,147.3596954345703,-44.4725227355957,128.83689880371094
2024-02-05 21:44:20.883428-09:00,,5.000153541564941,41.24382781982422,-9.45421314239502,92.93285369873047,2.050792932510376,100.48087310791016,51.94858932495117,48.073307037353516
2024-02-05 21:44:20.887428-09:00,,3.2973620891571045,44.65592575073242,-6.123428821563721,79.12085723876953,13.339293479919434,49.06684494018555,124.82774353027344,-59.89582824707031
2024-02-05 21:44:20.891428-09:00,,1.3996318578720093,47.28968048095703,-13.373987197875977,69.09397888183594,62.30569076538086,5.645544528961182,159.65274047851562,-10.866521835327148
2024-02-05 21:44:20.895428-09:00,,-0.15225942432880402,46.61579513549805,1.6643767356872559,38.428863525390625,93.72943878173828,-2.988884449005127,120.57366180419922,87.06918334960938
2024-02-05 21:44:20.900520-09:00,,-0.8698999285697937,45.26737594604492,12.464049339294434,14.501654624938965,132.5235595703125,13.11241626739502,51.252174377441406,142.7762908935547
2024-02-05 21:44:20.904520-09:00,,-1.6457760334014893,45.80710983276367,28.881881713867188,-2.6058809757232666,123.32182312011719,59.917972564697266,-22.71378517150879,326.54168701171875
2024-02-05 21:44:20.908520-09:00,,-3.364898681640625,41.314693450927734,44.43593215942383,-25.40885353088379,82.83719635009766,111.68695068359375,-50.16273880004883,164.4716033935547
2024-02-05 21:44:20.912520-09:00,,-3.3458311557769775,34.571617126464844,62.03203582763672,-19.363353729248047,32.594661712646484,167.86984252929688,42.09221649169922,-52.82406997680664
2024-02-05 21:44:20.916520-09:00,,-3.480217456817627,29.883203506469727,70.63552856445312,5.449121475219727,-5.236123561859131,144.88172912597656,132.1217041015625,-32.46523666381836
2024-02-05 21:44:20.920520-09:00,,-3.5800790786743164,22.050514221191406,77.32281494140625,33.63376235961914,-19.298858642578125,73.41973114013672,173.09445190429688,60.48670959472656
2024-02-05 21:44:20.924520-09:00,,-3.841365337371826,15.434703826904297,67.61776733398438,60.0455436706543,0.4071686565876007,-1.4850176572799683,133.3275146484375,172.16510009765625
2024-02-05 21:44:20.928520-09:00,,-3.7087411880493164,9.20390796661377,62.66950607299805,92.47106170654297,26.898771286010742,-7.116272449493408,65.64983367919922,151.5587158203125
2024-02-05 21:44:20.931760-09:00,,-1.6800062656402588,-8.178874969482422,21.581445693969727,75.6053695678711,118.49381256103516,93.04252624511719,23.05856704711914,-70.23302459716797
2024-02-05 21:44:20.932520-09:00,,-3.0071802139282227,1.9523963928222656,50.890377044677734,86.34044647216797,63.78074645996094,-5.561086177825928,-14.603455543518066,99.03550720214844
2024-02-05 21:44:20.935760-09:00,,-0.6210719347000122,-8.547557830810547,9.422592163085938,53.18788528442383,113.20880126953125,120.59007263183594,124.36932373046875,23.054462432861328
2024-02-05 21:44:20.936520-09:00,,-3.0116302967071533,-1.4708871841430664,37.11772537231445,88.38182067871094,105.26532745361328,39.604705810546875,-39.88885498046875,19.925216674804688
2024-02-05 21:44:20.939760-09:00,,0.19283811748027802,-9.453503608703613,-8.555004119873047,24.314355850219727,77.11270904541016,147.26577758789062,184.9979248046875,130.08428955078125
2024-02-05 21:44:20.943760-09:00,,1.373123049736023,-8.899213790893555,-17.26238250732422,1.7746435403823853,33.55413818359375,97.76649475097656,303.0528869628906,151.8531951904297
2024-02-05 21:44:20.947760-09:00,,2.931828498840332,-3.1327638626098633,-11.924999237060547,-22.397510528564453,-14.254613876342773,31.374807357788086,147.11309814453125,131.9247283935547
2024-02-05 21:44:20.951760-09:00,,4.678726673126221,2.8081114292144775,-2.4153831005096436,-16.032470703125,-32.571311950683594,-37.079429626464844,-10.643303871154785,36.083168029785156
2024-02-05 21:44:20.955760-09:00,,6.383026599884033,6.791570663452148,3.0727922916412354,-1.8596291542053223,-13.902823448181152,-43.77547836303711,-55.59104537963867,-50.84132766723633
2024-02-05 21:44:20.959760-09:00,,8.282374382019043,14.340614318847656,19.06437110900879,20.91403579711914,25.342395782470703,13.230652809143066,33.25946807861328,23.945846557617188
2024-02-05 21:44:20.963760-09:00,,10.0,21.349348068237305,34.76648712158203,47.40009689331055,64.61814880371094,79.80364990234375,99.54869079589844,124.7464828491211
2024-02-05 21:44:20.967760-09:00,,11.837678909301758,29.0555362701416,49.03411865234375,71.35452270507812,110.63179016113281,150.9335479736328,176.9061279296875,197.3997802734375
2024-02-05 21:44:20.973240-09:00,,13.38632869720459,34.343658447265625,63.69650650024414,100.48851013183594,107.38447570800781,152.63656616210938,168.4916534423828,163.10292053222656
2024-02-05 21:44:20.977240-09:00,,15.153512954711914,38.57685089111328,64.7599105834961,91.31475830078125,114.6806411743164,102.8891830444336,86.9359359741211,58.97996139526367
2024-02-05 21:44:20.981240-09:00,,17.099424362182617,45.49568176269531,76.31256866455078,93.72529602050781,83.90574645996094,48.77448654174805,15.622754096984863,-53.741634368896484
2024-02-05 21:44:20.985240-09:00,,18.414939880371094,49.26375961303711,69.93751525878906,64.82266998291016,37.23257827758789,-14.338034629821777,-48.41579055786133,-5.491045951843262
2024-02-05 21:44:20.989240-09:00,,19.761497497558594,48.38019561767578,60.600276947021484,38.50543212890625,10.63887882232666,-3.249091386795044,-9.055503845214844,90.51171112060547
2024-02-05 21:44:20.993240-09:00,,20.920732498168945,45.517765045166016,46.472991943359375,12.698348999023438,-32.953575134277344,-0.9184039831161499,86.04939270019531,171.5892333984375
2024-02-05 21:44:20.997240-09:00,,22.06902313232422,44.088165283203125,31.185314178466797,-12.492578506469727,-19.784700393676758,59.89015579223633,140.38922119140625,215.6607666015625
2024-02-05 21:44:21.001240-09:00,,22.163372039794922,40.32450866699219,16.163066864013672,-25.906108856201172,18.690771102905273,108.54174041748047,174.2689971923828,82.53297424316406
2024-02-05 21:44:21.005240-09:00,,23.35590934753418,34.14228057861328,0.5932382941246033,-3.1419777870178223,61.73193359375,138.5255584716797,94.14034271240234,-38.414371490478516
2024-02-05 21:44:21.009240-09:00,,23.539936065673828,29.080188751220703,-9.275654792785645,10.824641227722168,110.5653305053711,140.5754852294922,3.444887638092041,14.77890682220459
2024-02-05 21:44:21.014153-09:00,,24.739442825317383,22.131568908691406,-10.10346508026123,35.17348861694336,102.96160125732422,71.84561920166016,-16.719940185546875,59.59319305419922
2024-02-05 21:44:21.018153-09:00,,24.088132858276367,15.109903335571289,-10.376836776733398,58.4842414855957,100.25236511230469,4.732404708862305,-10.232378005981445,146.54629516601562
2024-02-05 21:44:21.022153-09:00,,23.9545841217041,7.4630537033081055,-3.849536180496216,81.009521484375,78.3046875,-15.211841583251953,75.29576110839844,364.2603759765625
2024-02-05 21:44:21.026153-09:00,,24.077836990356445,0.9245096445083618,11.49659538269043,99.52640533447266,38.12657165527344,0.5347827672958374,134.9416961669922,232.68626403808594
2024-02-05 21:44:21.030153-09:00,,23.168140411376953,-1.2665445804595947,23.798294067382812,90.10944366455078,-1.6122698783874512,38.752296447753906,142.3046417236328,-1.656128168106079
2024-02-05 21:44:21.034153-09:00,,22.408597946166992,-6.970057964324951,39.883121490478516,79.73688507080078,-34.751747131347656,109.6174087524414,105.39419555664062,-69.11450958251953
2024-02-05 21:44:21.038153-09:00,,21.340959548950195,-6.185216426849365,56.73918151855469,52.01168441772461,-10.953629493713379,141.47776794433594,26.870914459228516,18.91200828552246
2024-02-05 21:44:21.042153-09:00,,19.27403450012207,-9.629417419433594,68.23278045654297,26.031953811645508,17.561012268066406,135.7105712890625,-19.4186954498291,152.20860290527344
2024-02-05 21:44:21.046153-09:00,,18.432819366455078,-4.240083694458008,65.5431900024414,-2.3325016498565674,61.471675872802734,92.01946258544922,-3.731964111328125,160.53977966308594
2024-02-05 21:44:21.050153-09:00,,16.5457820892334,-1.310937762260437,75.78861999511719,-24.006376266479492,98.74568939208984,37.44730758666992,64.4969711303711,145.50608825683594
2024-02-05 21:44:21.056536-09:00,,15.051456451416016,2.757192373275757,65.87074279785156,-10.320825576782227,119.29594421386719,3.1277685165405273,141.78480529785156,24.72417449951172
2024-02-05 21:44:21.060536-09:00,,13.579961776733398,6.833558082580566,52.62070846557617,4.038759231567383,109.54456329345703,-27.303707122802734,170.70187377929688,-71.62611389160156
2024-02-05 21:44:21.064536-09:00,,11.717804908752441,14.635173797607422,43.09035873413086,21.296669006347656,84.62088012695312,24.33258056640625,134.53651428222656,31.448017120361328
2024-02-05 21:44:21.068536-09:00,,10.0,21.395967483520508,25.360931396484375,47.78916931152344,33.7366828918457,78.33802032470703,40.76127624511719,120.10779571533203
2024-02-05 21:44:21.072536-09:00,,8.280993461608887,28.577198028564453,12.586984634399414,79.14307403564453,9.37131404876709,122.8107681274414,-28.388469696044922,152.30604553222656
2024-02-05 21:44:21.076536-09:00,,6.622268199920654,34.59370422363281,-6.761251926422119,94.20722961425781,-11.684741973876953,164.2226104736328,-3.785832405090332,170.1503448486328
2024-02-05 21:44:21.080536-09:00,,4.575819492340088,38.93489074707031,-12.651549339294434,95.13956451416016,0.13658612966537476,103.97920989990234,55.64214324951172,54.782466888427734
2024-02-05 21:44:21.084536-09:00,,3.327679395675659,45.71209716796875,-11.048675537109375,81.32524871826172,27.446758270263672,48.968711853027344,135.7678680419922,-7.488441467285156
2024-02-05 21:44:21.088536-09:00,,1.3787981271743774,46.056461334228516,-3.4705963134765625,63.46908950805664,63.635520935058594,-17.91053581237793,311.5881652832031,19.717716217041016
2024-02-05 21:44:21.092536-09:00,,0.10039043426513672,49.95482635498047,-0.4871097505092621,38.88965606689453,92.60990905761719,-0.22164282202720642,281.82904052734375,95.56640625
2024-02-05 21:44:21.100221-09:00,,-0.6753503084182739,49.12198257446289,13.638490676879883,16.476530075073242,102.87853240966797,-8.042588233947754,110.18363952636719,194.8319854736328
2024-02-05 21:44:21.104221-09:00,,-2.0540664196014404,42.56840133666992,28.93418312072754,-0.9122287631034851,126.5764389038086,59.86293029785156,-42.5547981262207,157.62974548339844
2024-02-05 21:44:21.108221-09:00,,-2.7189671993255615,40.79753875732422,46.063232421875,-8.753558158874512,80.4253158569336,131.09771728515625,-30.030868530273438,83.59520721435547
2024-02-05 21:44:21.112221-09:00,,-3.2365405559539795,36.54099655151367,60.861019134521484,-7.769987106323242,35.806915283203125,135.849365234375,41.75022888183594,21.38414192199707
2024-02-05 21:44:21.116221-09:00,,-3.6395130157470703,28.299972534179688,65.20519256591797,2.6713907718658447,8.516414642333984,109.45279693603516,125.58563232421875,-57.75727462768555
2024-02-05 21:44:21.120221-09:00,,-3.6461739540100098,22.31867027282715,69.38021087646484,33.575199127197266,-2.872415542602539,72.72538757324219,146.33529663085938,68.17571258544922
2024-02-05 21:44:21.124221-09:00,,-4.068940162658691,15.267366409301758,65.83032989501953,64.88274383544922,-9.66174030303955,2.671128034591675,118.51544952392578,179.0474090576172
2024-02-05 21:44:21.128221-09:00,,-3.869381904602051,8.304699897766113,59.53420639038086,81.47879791259766,24.819684982299805,-46.21464920043945,64.01781463623047,148.3934326171875
2024-02-05 21:44:21.132221-09:00,,-3.322211265563965,3.9221856594085693,52.3276252746582,94.4283218383789,60.6437873840332,-29.026981353759766,-25.39612579345703,103.90058898925781
2024-02-05 21:44:21.133952-09:00,,-2.4901726245880127,-7.604976177215576,21.48479652404785,71.75889587402344,128.41050720214844,98.3967514038086,30.11365509033203,-25.194229125976562
2024-02-05 21:44:21.136221-09:00,,-3.0322346687316895,-2.385559320449829,36.03810501098633,92.59994506835938,103.44364166259766,37.38514709472656,-15.440913200378418,25.647605895996094
2024-02-05 21:44:21.137952-09:00,,-1.036784291267395,-8.586930274963379,7.884291648864746,54.22347640991211,122.42572021484375,144.07769775390625,103.87998962402344,28.07196044921875
2024-02-05 21:44:21.141952-09:00,,-0.03256824612617493,-10.549707412719727,-1.954058051109314,25.255325317382812,80.40509796142578,155.78378295898438,141.3514862060547,119.01647186279297
2024-02-05 21:44:21.145952-09:00,,1.5309804677963257,-5.510018825531006,-7.478574752807617,6.153410911560059,36.41358947753906,81.96831512451172,131.17062377929688,371.9316101074219
2024-02-05 21:44:21.149952-09:00,,3.293833017349243,-3.177473545074463,-11.937359809875488,-19.81644630432129,9.14292049407959,35.08641815185547,75.0263900756836,256.47833251953125
2024-02-05 21:44:21.153952-09:00,,4.586964130401611,0.14497581124305725,-10.021292686462402,-11.87850570678711,-28.22950553894043,-1.099271297454834,-12.7539701461792,64.47335052490234
2024-02-05 21:44:21.157952-09:00,,6.441002368927002,7.567819595336914,6.5801568031311035,-0.09255331754684448,-5.403879165649414,-43.83395767211914,-3.8093206882476807,-31.166629791259766
2024-02-05 21:44:21.161952-09:00,,8.228850364685059,14.492193222045898,17.288930892944336,23.635656356811523,21.225736618041992,10.492022514343262,22.723939895629883,37.46131896972656
2024-02-05 21:44:21.165952-09:00,,10.0,21.51407241821289,34.408775329589844,46.827728271484375,63.93075180053711,82.57194519042969,107.31326293945312,103.994384765625
2024-02-05 21:44:21.169952-09:00,,11.79714298248291,28.249582290649414,48.11223220825195,76.53558349609375,98.95728302001953,147.2634735107422,130.07928466796875,185.009521484375
2024-02-05 21:44:21.177416-09:00,,13.3709077835083,34.08953857421875,60.59285354614258,93.71913146972656,111.56512451171875,141.23008728027344,129.3039093017578,140.51727294921875
2024-02-05 21:44:21.181416-09:00,,15.363017082214355,42.321189880371094,66.23483276367188,104.60800170898438,116.91310119628906,106.68334197998047,88.05955505371094,55.44571304321289
2024-02-05 21:44:21.185416-09:00,,16.759845733642578,46.74535369873047,70.10961151123047,77.65354919433594,86.31830596923828,52.457679748535156,15.63341999053955,-66.48301696777344
2024-02-05 21:44:21.189416-09:00,,18.339183807373047,49.901634216308594,73.00469207763672,67.87406921386719,37.03053665161133,7.088923931121826,-41.773677825927734,15.178838729858398
2024-02-05 21:44:21.193416-09:00,,19.222707748413086,49.10335159301758,56.66846466064453,38.85237503051758,-13.751134872436523,-10.092069625854492,19.270597457885742,91.83770751953125
2024-02-05 21:44:21.197416-09:00,,20.56630516052246,46.39263153076172,46.48237609863281,6.7402496337890625,-29.634138107299805,12.789286613464355,90.90088653564453,211.20278930664062
2024-02-05 21:44:21.201416-09:00,,22.18152618408203,46.976661682128906,30.944599151611328,-2.2238552570343018,-6.596673488616943,59.90653991699219,128.4783172607422,175.02593994140625
2024-02-05 21:44:21.205416-09:00,,22.579511642456055,39.17636489868164,17.473033905029297,-22.283775329589844,16.816360473632812,120.34828186035156,172.42233276367188,82.31632995605469
2024-02-05 21:44:21.209416-09:00,,23.890357971191406,33.99481201171875,5.275634288787842,-2.0993988513946533,62.50099182128906,122.87614440917969,102.77555084228516,-24.00315284729004
2024-02-05 21:44:21.213416-09:00,,24.142093658447266,28.5830020904541,-7.825384140014648,11.42262077331543,94.11908721923828,128.6239013671875,15.98723316192627,6.100394248962402
2024-02-05 21:44:21.220065-09:00,,24.285673141479492,22.19781494140625,-13.941818237304688,33.456260681152344,129.16342163085938,73.485107421875,-60.66697692871094,65.39031982421875
2024-02-05 21:44:21.224065-09:00,,24.399738311767578,14.604085922241211,-11.11337947845459,62.505157470703125,98.46129608154297,0.4373331069946289,-21.541921615600586,190.8345184326172
2024-02-05 21:44:21.228065-09:00,,23.386701583862305,7.989538669586182,-2.586702346801758,85.14920043945312,74.68519592285156,-7.620938777923584,74.13368225097656,224.0548553466797
2024-02-05 21:44:21.232065-09:00,,23.138256072998047,2.379767656326294,8.606415748596191,101.76145935058594,38.18490982055664,9.071907997131348,307.63031005859375,99.46257781982422
2024-02-05 21:44:21.236065-09:00,,22.358585357666016,-1.9646120071411133,23.14814567565918,101.54576873779297,10.57343578338623,42.751277923583984,390.7325439453125,30.609344482421875
2024-02-05 21:44:21.240065-09:00,,21.701261520385742,-4.279141902923584,39.33675765991211,77.58345031738281,-35.68250274658203,92.81420135498047,218.7681121826172,-70.81729888916016
2024-02-05 21:44:21.244065-09:00,,20.396760940551758,-10.307488441467285,51.23440933227539,53.00027084350586,-23.052568435668945,161.11859130859375,24.80793571472168,45.268096923828125
2024-02-05 21:44:21.248065-09:00,,19.974958419799805,-9.11956787109375,60.28529357910156,23.77075958251953,18.391719818115234,115.65739440917969,-26.98060417175293,151.3279266357422
2024-02-05 21:44:21.252065-09:00,,18.493572235107422,-7.01572847366333,69.10388946533203,-1.8122988939285278,67.41675567626953,82.1667709350586,6.152273178100586,204.78150939941406
2024-02-05 21:44:21.253779-09:00,,15.008855819702148,1.8003886938095093,71.67472839355469,-7.163190841674805,116.20283508300781,-3.8172731399536133,123.13810729980469,26.429738998413086
2024-02-05 21:44:21.256065-09:00,,16.89336585998535,-5.290808200836182,77.87982940673828,-23.900009155273438,96.99825286865234,21.494720458984375,63.88608932495117,138.4437713623047
2024-02-05 21:44:21.257779-09:00,,13.531168937683105,7.659343242645264,52.33633041381836,-10.155234336853027,109.6236343383789,-19.358518600463867,194.32208251953125,-46.87827682495117
2024-02-05 21:44:21.261779-09:00,,11.711983680725098,14.505810737609863,41.0037727355957,22.157154083251953,76.31503295898438,23.804275512695312,132.7708740234375,10.60407543182373
2024-02-05 21:44:21.265779-09:00,,10.0,21.418657302856445,26.36741065979004,49.37737274169922,36.47492218017578,75.42510223388672,42.449405670166016,131.64149475097656
2024-02-05 21:44:21.269779-09:00,,8.253661155700684,28.656553268432617,12.465624809265137,76.38180541992188,10.574125289916992,117.9990005493164,-13.760104179382324,375.70361328125
2024-02-05 21:44:21.273779-09:00,,6.4195332527160645,33.97257995605469,2.3366143703460693,85.81293487548828,-5.161159515380859,150.92982482910156,8.264674186706543,279.03961181640625
2024-02-05 21:44:21.277779-09:00,,4.740589618682861,40.865169525146484,-12.918937683105469,103.24321746826172,-1.4631357192993164,121.14459991455078,52.61823272705078,101.71353149414062
2024-02-05 21:44:21.281779-09:00,,3.4519081115722656,46.433074951171875,-9.131094932556152,87.85491180419922,22.56175994873047,47.73503875732422,147.04525756835938,-35.75151824951172
2024-02-05 21:44:21.285779-09:00,,2.022488594055176,48.0537223815918,-11.392335891723633,66.18008422851562,63.754268646240234,-21.122604370117188,144.4126739501953,16.63508415222168
2024-02-05 21:44:21.289779-09:00,,0.572160005569458,46.671146392822266,-2.6942801475524902,38.391029357910156,98.82023620605469,-27.181703567504883,154.80860900878906,88.67188262939453
2024-02-05 21:44:21.297542-09:00,,-1.0271854400634766,46.39412307739258,13.006754875183105,7.456384181976318,126.79241943359375,-6.994743347167969,51.23337173461914,157.6279296875
2024-02-05 21:44:21.301542-09:00,,-2.3726694583892822,45.42504119873047,28.889310836791992,-6.212894439697266,96.44486236572266,59.856285095214844,-23.418914794921875,196.6481475830078
2024-02-05 21:44:21.305542-09:00,,-2.9217286109924316,42.20310592651367,44.542884826660156,-14.068982124328613,74.25507354736328,119.56673431396484,-44.69910430908203,81.89193725585938
2024-02-05 21:44:21.309542-09:00,,-3.5398950576782227,34.23831558227539,57.68123245239258,-14.83997631072998,37.95862579345703,143.89942932128906,37.563682556152344,15.480047225952148
2024-02-05 21:44:21.313542-09:00,,-3.9661619663238525,29.56559181213379,69.9422607421875,4.263375759124756,-3.8388173580169678,132.12489318847656,134.52235412597656,-30.867565155029297
2024-02-05 21:44:21.317542-09:00,,-3.905433177947998,22.2941837310791,78.46690368652344,35.31595993041992,-31.442367553710938,73.89576721191406,155.00338745117188,66.64419555664062
2024-02-05 21:44:21.321542-09:00,,-3.7406375408172607,15.356847763061523,74.3489990234375,60.65388107299805,-26.587120056152344,20.34499740600586,138.52386474609375,193.51498413085938
2024-02-05 21:44:21.325542-09:00,,-3.364304780960083,7.660242080688477,63.580265045166016,75.7403793334961,15.04246711730957,-40.240787506103516,65.59825134277344,213.15843200683594
2024-02-05 21:44:21.329542-09:00,,-2.8517379760742188,2.284778356552124,52.69222640991211,104.33677673339844,62.68349075317383,-29.06262969970703,-12.776890754699707,111.7052001953125
2024-02-05 21:44:21.332219-09:00,,-2.271505832672119,-4.3296661376953125,20.474620819091797,82.85107421875,135.13739013671875,104.64263153076172,32.067405700683594,-63.15883255004883
2024-02-05 21:44:21.333542-09:00,,-2.737989664077759,-0.9164007902145386,36.131404876708984,98.07575988769531,104.88809204101562,36.27617645263672,-11.763407707214355,4.820042610168457
2024-02-05 21:44:21.336219-09:00,,-1.3697586059570312,-9.788409233093262,7.4925079345703125,52.07796859741211,122.1312484741211,155.05776977539062,102.67161560058594,47.69677734375
2024-02-05 21:44:21.340219-09:00,,0.1821058988571167,-6.887037754058838,-3.119713068008423,23.515541076660156,77.40521240234375,120.15340423583984,196.21432495117188,158.019287109375
2024-02-05 21:44:21.344219-09:00,,1.6665927171707153,-7.782583713531494,-15.170110702514648,1.7307049036026,38.048011779785156,82.79981994628906,123.62254333496094,181.29380798339844
2024-02-05 21:44:21.348219-09:00,,2.878284454345703,-5.1504902839660645,-9.346322059631348,-6.199331283569336,-4.730234622955322,21.04062843322754,75.29704284667969,154.38076782226562
2024-02-05 21:44:21.352219-09:00,,5.027440547943115,0.9993955492973328,-9.695372581481934,-5.651618003845215,-13.398704528808594,0.13852185010910034,5.931824684143066,36.22343063354492
2024-02-05 21:44:21.356219-09:00,,6.613535404205322,8.065478324890137,0.35552123188972473,-3.5449485778808594,-15.534992218017578,-40.9310417175293,-14.062108993530273,-19.791263580322266
2024-02-05 21:44:21.360219-09:00,,8.198369026184082,14.711950302124023,17.717973709106445,17.40460968017578,20.16715431213379,15.499536514282227,4.172069072723389,-10.991579055786133
2024-02-05 21:44:21.364219-09:00,,10.0,21.362424850463867,34.05170822143555,46.82132339477539,65.93309020996094,77.15751647949219,211.50408935546875,105.6746597290039
2024-02-05 21:44:21.368219-09:00,,11.782421112060547,28.338598251342773,50.11875534057617,68.00226593017578,89.84725952148438,133.69960021972656,346.7807922363281,223.47303771972656
2024-02-05 21:44:21.374332-09:00,,13.5240478515625,34.700904846191406,64.20819091796875,97.78984832763672,109.93517303466797,126.06825256347656,272.22296142578125,164.00973510742188
2024-02-05 21:44:21.378332-09:00,,15.34472942352295,42.312984466552734,65.84716796875,89.9946060180664,116.54014587402344,103.28312683105469,84.66531372070312,51.96689224243164
2024-02-05 21:44:21.382332-09:00,,16.633346557617188,43.161277770996094,67.16291046142578,78.89571380615234,72.27440643310547,47.629695892333984,14.222945213317871,-40.1779899597168
2024-02-05 21:44:21.386332-09:00,,18.3779296875,45.8948974609375,71.34263610839844,63.79585266113281,33.64404296875,-8.20801830291748,-0.12972448766231537,-13.741789817810059
2024-02-05 21:44:21.390332-09:00,,19.523401260375977,46.909217834472656,55.440433502197266,38.487884521484375,7.024303436279297,-11.60852336883545,-0.10560742020606995,93.8529281616211
2024-02-05 21:44:21.394332-09:00,,21.045639038085938,49.49136734008789,48.482173919677734,10.771092414855957,-28.545228958129883,-0.9170423150062561,81.23076629638672,318.517822265625
2024-02-05 21:44:21.398332-09:00,,21.960926055908203,43.68095779418945,31.022090911865234,-9.541297912597656,-18.179704666137695,59.88248062133789,178.60256958007812,351.2909851074219
2024-02-05 21:44:21.402332-09:00,,22.260116577148438,40.75027084350586,13.667813301086426,-20.2657470703125,22.852201461791992,107.7916259765625,159.3497772216797,152.27288818359375
2024-02-05 21:44:21.406332-09:00,,22.873262405395508,35.88715744018555,5.82576322555542,-7.49166202545166,62.67529296875,159.58164978027344,95.09493255615234,-28.95170021057129
2024-02-05 21:44:21.410332-09:00,,24.340295791625977,29.465993881225586,-7.663875102996826,12.780588150024414,104.76158905029297,110.62710571289062,7.343875408172607,-10.818037986755371
2024-02-05 21:44:21.414532-09:00,,23.56178855895996,22.33557891845703,-11.8433837890625,33.59967803955078,123.91123962402344,73.42108917236328,-37.95613098144531,58.1556510925293
2024-02-05 21:44:21.418532-09:00,,24.37529182434082,15.274308204650879,-6.935658931732178,61.41432189941406,96.18341064453125,12.653328895568848,-28.017379760742188,135.79904174804688
2024-02-05 21:44:21.422532-09:00,,24.472978591918945,7.928079128265381,-5.777005672454834,77.08736419677734,77.2503662109375,-30.36897850036621,76.46546936035156,180.0206756591797
2024-02-05 21:44:21.426532-09:00,,23.254268646240234,1.3496372699737549,8.627789497375488,94.59497833251953,36.32032775878906,-27.088239669799805,154.6536407470703,105.49517822265625
2024-02-05 21:44:21.430532-09:00,,23.220840454101562,-0.48126980662345886,22.91377830505371,102.01042938232422,3.186936140060425,41.04352569580078,184.34039306640625,4.13547420501709
2024-02-05 21:44:21.434532-09:00,,22.118947982788086,-7.334225654602051,38.62979507446289,79.39305877685547,-30.723405838012695,91.45152282714844,102.93578338623047,-55.17485809326172
2024-02-05 21:44:21.438532-09:00,,21.23410415649414,-7.5069661140441895,54.070919036865234,53.69552993774414,-3.6753880977630615,153.19590759277344,30.440670013427734,51.94352722167969
2024-02-05 21:44:21.442532-09:00,,20.077808380126953,-7.519111633300781,60.033935546875,27.10771942138672,18.263612747192383,129.03077697753906,-18.529659271240234,119.34867095947266
2024-02-05 21:44:21.446532-09:00,,18.400169372558594,-7.331223011016846,67.21150207519531,2.682767868041992,61.573326110839844,99.99996948242188,-17.66748809814453,171.24429321289062
2024-02-05 21:44:21.450532-09:00,,16.852741241455078,-3.4284863471984863,71.36797332763672,-22.31088638305664,105.02710723876953,35.30325698852539,62.40922927856445,138.15545654296875
2024-02-05 21:44:21.457403-09:00,,15.046281814575195,1.9401198625564575,68.69739532470703,-9.162632942199707,109.25264739990234,-29.656946182250977,142.0511016845703,15.212989807128906
2024-02-05 21:44:21.461403-09:00,,13.489736557006836,8.032578468322754,53.37059020996094,1.8974525928497314,114.77008819580078,-2.329495906829834,157.57554626464844,-1.3817424774169922
2024-02-05 21:44:21.465403-09:00,,11.839042663574219,14.324374198913574,40.6214485168457,24.140085220336914,83.24756622314453,29.518535614013672,133.07968139648438,-7.90243673324585
2024-02-05 21:44:21.469403-09:00,,10.0,21.516260147094727,25.18429946899414,49.95196533203125,38.6007194519043,83.12591552734375,37.27626419067383,122.32044982910156
2024-02-05 21:44:21.473403-09:00,,8.217376708984375,29.19644546508789,12.632076263427734,74.245849609375,6.750071048736572,123.89907836914062,-19.64897918701172,221.5443115234375
2024-02-05 21:44:21.477403-09:00,,6.469396591186523,35.42265701293945,-3.2664568424224854,99.69116973876953,-24.130878448486328,138.7811279296875,-2.4828226566314697,155.38967895507812
2024-02-05 21:44:21.481403-09:00,,4.779996871948242,41.15020751953125,-6.252640247344971,86.25785064697266,-15.376033782958984,123.75833129882812,52.621036529541016,56.13518524169922
2024-02-05 21:44:21.485403-09:00,,3.480257511138916,46.650001525878906,-14.65811538696289,94.58344268798828,24.893035888671875,49.548011779785156,113.23751831054688,6.481088161468506
2024-02-05 21:44:21.489403-09:00,,1.85059654712677,45.249637603759766,-6.794450283050537,67.9105224609375,60.94160842895508,-11.259018898010254,152.0909881591797,-19.77399444580078
2024-02-05 21:44:21.493403-09:00,,0.6544299721717834,47.76509475708008,2.2691361904144287,38.37954330444336,112.40946960449219,-2.28429913520813,131.461669921875,94.71751403808594
2024-02-05 21:44:21.498356-09:00,,-0.8632879257202148,47.942989349365234,12.309093475341797,6.446306228637695,108.96932220458984,-13.696080207824707,50.61849594116211,179.37295532226562
2024-02-05 21:44:21.502356-09:00,,-2.5073022842407227,42.663902282714844,28.96369171142578,-12.678546905517578,108.53270721435547,59.86153030395508,-27.088958740234375,191.25181579589844
2024-02-05 21:44:21.506356-09:00,,-3.22562837600708,41.365013122558594,45.92672348022461,-26.02030372619629,75.47270965576172,123.53077697753906,-27.94854736328125,82.15502166748047
2024-02-05 21:44:21.510356-09:00,,-3.719838857650757,34.34484100341797,60.16181182861328,-1.2350132465362549,33.60619354248047,148.72755432128906,83.8255615234375,-31.703594207763672
2024-02-05 21:44:21.514356-09:00,,-4.140995502471924,29.533403396606445,63.71371078491211,12.705268859863281,-3.5545616149902344,125.20159149169922,213.0466766357422,-30.87961196899414
2024-02-05 21:44:21.518356-09:00,,-4.222574234008789,22.28849220275879,77.19141387939453,33.159515380859375,-11.001839637756348,69.9294204711914,329.00933837890625,61.050899505615234
2024-02-05 21:44:21.522356-09:00,,-4.4932780265808105,15.167350769042969,65.00764465332031,65.9967041015625,-7.081817150115967,-2.757689952850342,128.0244140625,348.4092712402344
2024-02-05 21:44:21.526356-09:00,,-3.8803675174713135,7.378509998321533,65.83362579345703,90.77566528320312,21.689640045166016,-19.871337890625,64.81692504882812,400.7218322753906
2024-02-05 21:44:21.530356-09:00,,-3.455623149871826,0.7700018286705017,52.4814453125,90.47037506103516,61.74171829223633,-10.731212615966797,15.699633598327637,226.96446228027344
2024-02-05 21:44:21.534356-09:00,,-2.437574625015259,-3.9267003536224365,37.034461975097656,96.69303894042969,106.70857238769531,39.461647033691406,-6.6882805824279785,-2.3207459449768066
2024-02-05 21:44:21.540610-09:00,,-2.2903261184692383,-5.701246738433838,21.00389289855957,80.92467498779297,134.9925994873047,101.01134490966797,20.861482620239258,-20.576932907104492
2024-02-05 21:44:21.544610-09:00,,-1.2800618410110474,-5.57890510559082,4.2632317543029785,50.29794692993164,97.3117904663086,117.4432601928711,118.37396240234375,31.355417251586914
2024-02-05 21:44:21.548610-09:00,,0.44214028120040894,-10.574126243591309,-5.348134994506836,22.12969970703125,74.52417755126953,123.79972076416016,163.6417999267578,164.43402099609375
2024-02-05 21:44:21.552610-09:00,,1.4508556127548218,-5.107916355133057,-14.6504545211792,-7.562220096588135,34.85033416748047,94.57630920410156,134.197265625,220.9994659423828
2024-02-05 21:44:21.556610-09:00,,3.394604444503784,-3.135535955429077,-11.19842529296875,-13.699837684631348,-6.785808563232422,19.98366355895996,75.26305389404297,116.74541473388672
2024-02-05 21:44:21.560610-09:00,,4.730367660522461,1.18040931224823,-2.996654987335205,-11.96838665008545,-25.4111270904541,-19.981332778930664,11.829493522644043,41.19418716430664
2024-02-05 21:44:21.564610-09:00,,6.466750621795654,6.662364482879639,4.0779314041137695,-8.626949310302734,-17.146121978759766,-36.10684585571289,-58.3580207824707,-68.81250762939453
2024-02-05 21:44:21.568610-09:00,,8.209433555603027,14.374114036560059,20.103717803955078,21.442325592041016,23.358964920043945,24.59975242614746,25.381669998168945,26.059436798095703
2024-02-05 21:44:21.572610-09:00,,10.0,21.324186325073242,33.83464431762695,47.25850296020508,63.9587516784668,74.71790313720703,108.02433776855469,114.1151123046875
2024-02-05 21:44:21.574074-09:00,,13.540963172912598,33.643150329589844,61.17584228515625,86.17961120605469,122.27578735351562,143.0520477294922,134.9886474609375,137.6719207763672
2024-02-05 21:44:21.576610-09:00,,11.761422157287598,29.045724868774414,48.34736251831055,78.1991195678711,102.02984619140625,146.9087677001953,171.46607971191406,156.89279174804688
2024-02-05 21:44:21.578074-09:00,,15.06900405883789,39.65492248535156,75.96660614013672,91.83279418945312,98.06065368652344,106.5296630859375,91.04308319091797,62.98261642456055
2024-02-05 21:44:21.582074-09:00,,16.751468658447266,46.801822662353516,68.97425842285156,88.2155532836914,77.8354263305664,51.98841857910156,-9.3980712890625,-46.2512321472168
2024-02-05 21:44:21.586074-09:00,,18.14228630065918,45.615623474121094,72.51808166503906,63.26105880737305,37.69267272949219,-8.279885292053223,2.4323885440826416,16.388687133789062
2024-02-05 21:44:21.590074-09:00,,19.88166618347168,49.14289093017578,62.83103942871094,38.560585021972656,-1.0460442304611206,-42.032020568847656,-11.124226570129395,90.92059326171875
2024-02-05 21:44:21.594074-09:00,,20.8262882232666,49.15174102783203,47.590492248535156,14.051265716552734,-15.589616775512695,-3.015141725540161,82.6382827758789,217.1820831298828
2024-02-05 21:44:21.598074-09:00,,22.027149200439453,45.2594108581543,31.20345115661621,-8.235127449035645,-4.313338279724121,59.894561767578125,167.05545043945312,153.8874053955078
2024-02-05 21:44:21.602074-09:00,,22.764602661132812,39.04138946533203,16.00113868713379,-13.440312385559082,14.182276725769043,118.3853988647461,185.70701599121094,82.40131378173828
2024-02-05 21:44:21.606074-09:00,,22.84836769104004,35.23442840576172,-2.1204123497009277,-4.83465576171875,64.71365356445312,146.352783203125,109.71813201904297,-19.006450653076172
2024-02-05 21:44:21.610074-09:00,,24.56684112548828,28.684873580932617,-10.902838706970215,5.257229804992676,95.68580627441406,120.38101196289062,34.24167251586914,-18.18596839904785
2024-02-05 21:44:21.624292-09:00,,24.34895896911621,22.13020133972168,-15.71728229522705,35.10980224609375,132.48968505859375,71.00540924072266,-45.72954177856445,68.76358032226562
2024-02-05 21:44:21.628292-09:00,,24.319833755493164,15.517271995544434,-9.947056770324707,65.1060562133789,112.59672546386719,13.970004081726074,-18.682302474975586,151.94297790527344
2024-02-05 21:44:21.632292-09:00,,23.892160415649414,8.614015579223633,-5.912840843200684,87.89278411865234,86.57940673828125,-25.166988372802734,73.5270004272461,209.709228515625
2024-02-05 21:44:21.636292-09:00,,23.43751335144043,2.3884963989257812,10.417394638061523,93.55103302001953,35.98904037475586,-26.296772003173828,175.5271453857422,122.88329315185547
2024-02-05 21:44:21.640292-09:00,,23.120426177978516,-2.8989572525024414,23.908023834228516,85.35729217529297,-2.8551340103149414,38.78833770751953,170.13829040527344,19.54258155822754
2024-02-05 21:44:21.644292-09:00,,21.447263717651367,-4.232062816619873,40.83171844482422,85.07498931884766,-11.558486938476562,98.86190795898438,115.70891571044922,-21.140195846557617
2024-02-05 21:44:21.648292-09:00,,20.71675682067871,-7.7581658363342285,56.4496955871582,54.5460090637207,-24.637176513671875,162.183837890625,25.69510841369629,32.018123626708984
2024-02-05 21:44:21.652292-09:00,,19.477962493896484,-7.551707744598389,70.27314758300781,27.217500686645508,18.065813064575195,136.3396759033203,-8.90481948852539,141.3174285888672
2024-02-05 21:44:21.656292-09:00,,18.462207794189453,-8.837472915649414,68.3615493774414,5.551313400268555,65.17389678955078,95.97273254394531,16.684823989868164,161.11996459960938
2024-02-05 21:44:21.659736-09:00,,15.321643829345703,2.4486823081970215,69.62899017333984,-21.9637508392334,105.243896484375,-2.454993724822998,125.97867584228516,27.612863540649414
2024-02-05 21:44:21.660292-09:00,,17.076961517333984,-2.7953732013702393,65.63922882080078,-15.912894248962402,93.55550384521484,34.215694427490234,62.69646453857422,159.50201416015625
2024-02-05 21:44:21.663736-09:00,,13.569449424743652,6.781538963317871,56.820152282714844,4.096686840057373,109.2640151977539,0.8888126611709595,161.47467041015625,-36.453765869140625
2024-02-05 21:44:21.667736-09:00,,11.823653221130371,14.32808780670166,40.12785720825195,17.354995727539062,85.95751190185547,14.478683471679688,115.67355346679688,-0.17201417684555054
2024-02-05 21:44:21.671736-09:00,,10.0,21.53212547302246,25.153650283813477,48.417762756347656,34.78512191772461,77.93617248535156,31.97878074645996,118.92634582519531
2024-02-05 21:44:21.675736-09:00,,8.272663116455078,29.074630737304688,9.821178436279297,78.73008728027344,1.4149943590164185,127.2920150756836,-20.97323226928711,231.07339477539062
2024-02-05 21:44:21.679736-09:00,,6.3273515701293945,33.80452346801758,-5.274581432342529,100.10974884033203,-35.779788970947266,161.6791229248047,-4.268871307373047,351.8706970214844
2024-02-05 21:44:21.683736-09:00,,4.555149555206299,40.98517608642578,-11.7376070022583,104.14012908935547,-24.200735092163086,123.230224609375,46.83946990966797,117.65933990478516
2024-02-05 21:44:21.687736-09:00,,3.016071319580078,42.76233673095703,-9.082478523254395,87.65644073486328,15.907438278198242,47.10038757324219,126.3672866821289,-61.89854049682617
2024-02-05 21:44:21.691736-09:00,,1.5422369241714478,48.80813980102539,-12.828958511352539,65.93246459960938,61.666194915771484,4.878580093383789,162.24383544921875,-28.365131378173828
2024-02-05 21:44:21.693378-09:00,,-0.4355396032333374,48.791873931884766,15.432071685791016,16.794696807861328,133.318359375,-10.5725736618042,113.65824127197266,216.06764221191406
2024-02-05 21:44:21.695736-09:00,,0.5814322233200073,46.67136764526367,-3.049668550491333,38.37946319580078,93.87350463867188,-24.869224548339844,278.7752685546875,91.05242156982422
2024-02-05 21:44:21.697378-09:00,,-1.6729763746261597,42.72027587890625,29.007793426513672,-8.33242416381836,106.45454406738281,59.90019607543945,-10.062101364135742,185.72940063476562
2024-02-05 21:44:21.701378-09:00,,-2.5947535037994385,40.94237518310547,45.51387023925781,-22.847442626953125,80.64994049072266,119.10192108154297,-34.269264221191406,81.90612030029297
2024-02-05 21:44:21.705378-09:00,,-3.734766721725464,35.16903305053711,61.76114273071289,-3.0571820735931396,33.69172668457031,161.66648864746094,46.34820556640625,-28.004987716674805
2024-02-05 21:44:21.709378-09:00,,-3.6290955543518066,29.351245880126953,73.51807403564453,6.402427673339844,-2.098752975463867,135.62413024902344,134.6768798828125,-25.709251403808594
2024-02-05 21:44:21.713378-09:00,,-4.765868186950684,22.260746002197266,71.20667266845703,33.18468475341797,-29.5928955078125,70.83516693115234,156.6084747314453,56.04877471923828
2024-02-05 21:44:21.717378-09:00,,-4.553753852844238,14.899636268615723,66.09687805175781,59.32358169555664,-10.401741027832031,12.59358024597168,152.9251251220703,152.26986694335938
2024-02-05 21:44:21.721378-09:00,,-4.273201942443848,7.9427618980407715,63.03074645996094,90.64024353027344,20.511714935302734,-11.967175483703613,63.78049087524414,217.9671630859375
2024-02-05 21:44:21.725378-09:00,,-3.900709629058838,0.6614511609077454,52.46361541748047,87.00297546386719,65.34209442138672,-29.133119583129883,7.293715953826904,106.87976837158203
2024-02-05 21:44:21.729378-09:00,,-2.6993284225463867,-1.5806654691696167,35.586952209472656,89.44268798828125,99.00023651123047,34.13848114013672,-42.861671447753906,8.970586776733398
2024-02-05 21:44:21.735440-09:00,,-1.4025301933288574,-4.454970836639404,21.221027374267578,75.9502182006836,113.39917755126953,104.82685089111328,41.64225387573242,-8.638840675354004
2024-02-05 21:44:21.739440-09:00,,-0.5722760558128357,-9.17496395111084,8.166292190551758,50.71165466308594,111.6343002319336,155.76531982421875,103.65098571777344,25.62412452697754
2024-02-05 21:44:21.743440-09:00,,-0.06692364066839218,-10.536478996276855,-2.1238536834716797,21.985244750976562,82.71514129638672,116.63778686523438,191.55958557128906,134.49917602539062
2024-02-05 21:44:21.747440-09:00,,1.9661226272583008,-7.9029951095581055,-14.73404598236084,-4.791032314300537,36.483394622802734,95.7435073852539,126.57442474365234,220.35577392578125
2024-02-05 21:44:21.751440-09:00,,3.229854106903076,-3.523642063140869,-6.9111151695251465,-19.80628204345703,6.056778907775879,24.91851234436035,77.823974609375,122.13858795166016
2024-02-05 21:44:21.755440-09:00,,4.928326606750488,1.4046475887298584,-3.689110040664673,-14.675355911254883,-19.990020751953125,-1.1461116075515747,18.610782623291016,25.994007110595703
2024-02-05 21:44:21.759440-09:00,,6.497522354125977,6.707709312438965,4.192298412322998,-1.9600307941436768,-0.04844670370221138,2.414872407913208,-11.612261772155762,-5.162138938903809
2024-02-05 21:44:21.763440-09:00,,8.266711235046387,14.505141258239746,18.5175838470459,22.357519149780273,17.97657012939453,13.994405746459961,-2.888483762741089,11.881360054016113
2024-02-05 21:44:21.767440-09:00,,10.0,21.38872718811035,34.32366180419922,47.551448822021484,63.32444763183594,75.227783203125,103.61811065673828,120.27033996582031
2024-02-05 21:44:21.771440-09:00,,11.849681854248047,29.111225128173828,51.56570816040039,69.268798828125,89.31207275390625,151.33059692382812,175.59544372558594,202.73875427246094
2024-02-05 21:44:21.779137-09:00,,13.56210708618164,35.363948822021484,61.7755012512207,87.25977325439453,103.57774353027344,152.5289306640625,185.52755737304688,191.1133575439453
2024-02-05 21:44:21.783137-09:00,,15.458542823791504,41.65399169921875,75.61058807373047,102.77037811279297,98.8383560180664,102.94857025146484,96.43287658691406,54.281742095947266
2024-02-05 21:44:21.787137-09:00,,17.015933990478516,42.27010726928711,75.50347137451172,83.22874450683594,74.60997009277344,51.650489807128906,14.842519760131836,-14.033281326293945
2024-02-05 21:44:21.791137-09:00,,18.30591583251953,48.16217041015625,68.8408432006836,68.43727111816406,35.02256774902344,-11.783753395080566,-36.23731231689453,-35.809993743896484
2024-02-05 21:44:21.795137-09:00,,20.07744789123535,47.79302215576172,63.15742492675781,38.49032211303711,4.972134113311768,-26.194679260253906,12.73900318145752,92.1238784790039
2024-02-05 21:44:21.799137-09:00,,20.49304962158203,46.84432601928711,45.24012756347656,16.861753463745117,-7.484700679779053,-9.268091201782227,88.08346557617188,161.4629669189453
2024-02-05 21:44:21.803137-09:00,,21.712520599365234,44.61268615722656,31.099090576171875,-2.604678153991699,-12.168669700622559,59.86130905151367,179.43930053710938,343.83441162109375
2024-02-05 21:44:21.807137-09:00,,23.092906951904297,42.11184310913086,17.254240036010742,-25.451372146606445,24.017738342285156,103.45618438720703,162.56678771972656,167.83505249023438
2024-02-05 21:44:21.811137-09:00,,23.62626075744629,35.560787200927734,1.4889161586761475,-20.498064041137695,66.73377227783203,151.5399932861328,91.92788696289062,8.830490112304688
2024-02-05 21:44:21.815137-09:00,,24.454187393188477,28.643325805664062,-7.164931297302246,3.8430376052856445,90.7372055053711,110.64671325683594,22.259845733642578,-24.948789596557617
2024-02-05 21:44:21.815656-09:00,,24.240598678588867,22.012250900268555,-12.365863800048828,33.96660614013672,110.1173095703125,68.5489730834961,3.5226142406463623,56.38573455810547
2024-02-05 21:44:21.819656-09:00,,24.34014129638672,14.86707592010498,-7.185067176818848,59.127784729003906,117.84220886230469,23.665929794311523,0.6086979508399963,147.1221466064453
2024-02-05 21:44:21.823656-09:00,,24.245807647705078,9.185547828674316,1.2690225839614868,86.92572784423828,82.01992797851562,-25.003171920776367,74.62738037109375,219.29537963867188
2024-02-05 21:44:21.827656-09:00,,23.65618324279785,1.6360957622528076,11.065120697021484,102.3460464477539,38.433876037597656,-27.990711212158203,162.1586151123047,121.24616241455078
2024-02-05 21:44:21.831656-09:00,,23.245948791503906,-3.0367908477783203,24.38545799255371,90.75225067138672,-3.729144811630249,42.29540252685547,327.64520263671875,16.533531188964844
2024-02-05 21:44:21.835656-09:00,,22.150270462036133,-8.084772109985352,40.479103088378906,75.89066314697266,-9.318427085876465,105.27115631103516,199.6852569580078,5.525341510772705
2024-02-05 21:44:21.839656-09:00,,20.67622947692871,-5.986364841461182,55.353904724121094,52.96010971069336,-4.365352153778076,138.63632202148438,77.06871795654297,33.62456512451172
2024-02-05 21:44:21.843656-09:00,,19.43996238708496,-7.574776649475098,60.35626220703125,24.38029670715332,25.7853946685791,147.96774291992188,-27.128049850463867,134.59483337402344
2024-02-05 21:44:21.847656-09:00,,17.93838119506836,-6.081679821014404,75.9307632446289,3.1835169792175293,63.21385192871094,85.12116241455078,16.283647537231445,199.63124084472656
2024-02-05 21:44:21.851656-09:00,,16.76140594482422,-5.339629173278809,66.4546890258789,-5.2522149085998535,103.66687774658203,20.213054656982422,61.515464782714844,118.55097198486328
2024-02-05 21:44:21.860621-09:00,,15.355657577514648,0.8504111766815186,71.4594497680664,-24.26203727722168,134.5371856689453,-16.246984481811523,129.7085723876953,8.40248966217041
2024-02-05 21:44:21.864621-09:00,,13.602774620056152,6.867532253265381,59.330177307128906,-8.740446090698242,102.84716796875,-39.26905059814453,138.8231201171875,-19.84309959411621
2024-02-05 21:44:21.868621-09:00,,11.713863372802734,14.516843795776367,40.640872955322266,18.858440399169922,79.95319366455078,20.645082473754883,119.86559295654297,29.33073616027832
2024-02-05 21:44:21.872621-09:00,,10.0,21.426158905029297,25.61833381652832,47.71845245361328,35.3356819152832,75.3277359008789,39.11433029174805,114.9090347290039
2024-02-05 21:44:21.876621-09:00,,8.246221542358398,27.902530670166016,8.49935245513916,70.47866821289062,7.8636298179626465,141.180908203125,-43.008480072021484,234.26356506347656
2024-02-05 21:44:21.880621-09:00,,6.416784763336182,35.9604606628418,-0.8852803707122803,100.98688507080078,-23.822795867919922,153.88345336914062,-23.2014102935791,163.2629852294922
2024-02-05 21:44:21.884621-09:00,,4.961936950683594,39.57831573486328,-12.870972633361816,87.55322265625,-25.453641891479492,111.4078369140625,54.37375259399414,45.18168640136719
2024-02-05 21:44:21.888621-09:00,,3.0279700756073,44.27097702026367,-10.518802642822266,90.1055679321289,18.524330139160156,51.548458099365234,133.10476684570312,-0.5497892498970032
2024-02-05 21:44:21.892621-09:00,,1.582393765449524,46.47343063354492,-7.282890796661377,67.3346176147461,66.29710388183594,4.581465721130371,153.27798461914062,14.356328010559082
2024-02-05 21:44:21.896621-09:00,,-0.07542286813259125,50.78989028930664,-1.2012940645217896,38.526519775390625,108.2064437866211,-39.42503356933594,116.44733428955078,94.79740142822266
2024-02-05 21:44:21.900039-09:00,,-1.2405548095703125,49.82278060913086,13.957334518432617,9.383759498596191,127.61053466796875,-7.482410430908203,55.344276428222656,182.67405700683594
2024-02-05 21:44:21.904039-09:00,,-1.7729007005691528,46.212989807128906,28.99388313293457,-14.524518966674805,102.7844467163086,59.87999725341797,-23.29444122314453,208.82473754882812
2024-02-05 21:44:21.908039-09:00,,-2.5037143230438232,41.630760192871094,44.55049514770508,-7.464496612548828,73.05243682861328,102.74365234375,-21.050107955932617,82.1026611328125
2024-02-05 21:44:21.912039-09:00,,-2.979201316833496,34.429473876953125,56.69308853149414,-14.327333450317383,32.5089225769043,132.80880737304688,43.934974670410156,-20.92892074584961
2024-02-05 21:44:21.916039-09:00,,-4.539219379425049,28.364877700805664,63.4888801574707,6.8790130615234375,4.189412593841553,132.18182373046875,115.00698852539062,-17.33104705810547
2024-02-05 21:44:21.920039-09:00,,-3.4889605045318604,22.06705093383789,74.03250885009766,35.08774185180664,-15.599609375,69.16537475585938,171.35919189453125,68.55530548095703
2024-02-05 21:44:21.924039-09:00,,-4.5336012840271,14.917638778686523,64.82608795166016,59.22275924682617,-17.84940528869629,-4.635893821716309,154.54470825195312,174.28143310546875
2024-02-05 21:44:21.928039-09:00,,-4.062938690185547,7.12565803527832,58.5406379699707,82.56283569335938,14.966251373291016,-30.9757137298584,66.10017395019531,329.787353515625
2024-02-05 21:44:21.932039-09:00,,-2.988384485244751,1.7681493759155273,50.86217498779297,98.56641387939453,64.65763092041016,1.6357407569885254,-8.352096557617188,216.87339782714844
2024-02-05 21:44:21.934243-09:00,,-1.4989343881607056,-6.657307147979736,19.677326202392578,77.77066802978516,121.34890747070312,96.0924072265625,29.554216384887695,-0.016044972464442253
2024-02-05 21:44:21.936039-09:00,,-3.429440975189209,-4.2752299308776855,36.64339065551758,89.05625915527344,114.6513671875,39.22547912597656,-24.847469329833984,32.38138961791992
2024-02-05 21:44:21.938243-09:00,,-1.3146637678146362,-9.179693222045898,2.553133249282837,52.77993392944336,112.7713851928711,128.8731689453125,102.27385711669922,19.333341598510742
2024-02-05 21:44:21.942243-09:00,,0.6649891138076782,-6.576104164123535,-2.124527931213379,26.191120147705078,77.69464874267578,151.1584930419922,144.59986877441406,125.95997619628906
2024-02-05 21:44:21.946243-09:00,,2.024890422821045,-8.889374732971191,-9.316526412963867,-2.7953593730926514,34.92106246948242,95.09684753417969,138.97328186035156,195.06044006347656
2024-02-05 21:44:21.950243-09:00,,3.472048759460449,-4.1451334953308105,-14.121355056762695,-11.982022285461426,-12.015028953552246,30.67598533630371,76.75355529785156,155.3714599609375
2024-02-05 21:44:21.954243-09:00,,4.98574686050415,0.8215476274490356,-6.257626533508301,-25.299407958984375,-37.368934631347656,-7.969571113586426,-18.536550521850586,31.651826858520508
2024-02-05 21:44:21.958243-09:00,,6.594702243804932,8.788545608520508,6.22468900680542,4.289147853851318,-0.504668653011322,-4.641836166381836,-56.44744873046875,-40.53353500366211
2024-02-05 21:44:21.962243-09:00,,8.274280548095703,14.49099063873291,16.708520889282227,16.703792572021484,19.78456687927246,22.958513259887695,6.600583553314209,37.99167251586914
2024-02-05 21:44:21.966243-09:00,,10.0,21.481887817382812,33.80027389526367,49.989295959472656,61.954959869384766,78.0888671875,102.55635833740234,105.51443481445312
2024-02-05 21:44:21.970243-09:00,,11.776164054870605,28.489484786987305,51.46366882324219,76.61280822753906,106.32064056396484,142.4092254638672,298.3261413574219,195.3818817138672
2024-02-05 21:44:21.976400-09:00,,13.423086166381836,34.10933303833008,63.91168975830078,98.51318359375,104.67552185058594,119.68257141113281,347.2586975097656,134.02818298339844
2024-02-05 21:44:21.980400-09:00,,15.089980125427246,41.80746078491211,69.83023071289062,91.37725067138672,119.63153839111328,105.09911346435547,198.45220947265625,53.34761047363281
2024-02-05 21:44:21.984400-09:00,,16.665502548217773,46.303165435791016,73.86772155761719,85.29387664794922,85.4526596069336,52.49024200439453,-6.8729963302612305,10.777956008911133
2024-02-05 21:44:21.988400-09:00,,18.471569061279297,49.5705680847168,71.82682037353516,65.59854888916016,37.28455352783203,-17.05186653137207,-43.57576370239258,13.776782989501953
2024-02-05 21:44:21.992400-09:00,,19.463777542114258,48.052101135253906,59.408836364746094,38.52295684814453,-8.863368034362793,-44.45055389404297,1.4708499908447266,91.48411560058594
2024-02-05 21:44:21.996400-09:00,,21.044445037841797,45.52375411987305,46.598731994628906,14.043691635131836,-18.63585662841797,-5.55983304977417,86.8186264038086,154.5200653076172
2024-02-05 21:44:22.000400-09:00,,21.388681411743164,42.909297943115234,31.033946990966797,-12.164562225341797,-24.041610717773438,59.871063232421875,135.50979614257812,163.6375732421875
2024-02-05 21:44:22.004400-09:00,,22.166393280029297,39.75595474243164,16.958152770996094,-23.294668197631836,17.284767150878906,134.54925537109375,161.99386596679688,83.58998107910156
2024-02-05 21:44:22.008400-09:00,,23.34952163696289,36.5181770324707,2.3531651496887207,-13.849783897399902,65.53153991699219,129.92822265625,91.74276733398438,3.3654134273529053
2024-02-05 21:44:22.012400-09:00,,23.783185958862305,29.908422470092773,-7.507322788238525,9.092939376831055,111.94739532470703,139.4471435546875,19.06903839111328,10.707276344299316
2024-02-05 21:44:22.018569-09:00,,24.61349105834961,22.043792724609375,-8.426722526550293,33.368377685546875,119.17376708984375,73.27410888671875,-51.946224212646484,69.1509017944336
2024-02-05 21:44:22.022569-09:00,,23.737119674682617,14.88671588897705,-16.51004409790039,65.03946685791016,119.10413360595703,21.384990692138672,19.715320587158203,192.8128204345703
2024-02-05 21:44:22.026569-09:00,,24.39369773864746,7.325129508972168,-6.288264274597168,85.00664520263672,78.37215423583984,-5.85563850402832,73.1933364868164,181.00009155273438
2024-02-05 21:44:22.030569-09:00,,24.045822143554688,3.9767885208129883,8.046845436096191,86.0208969116211,33.42414093017578,5.250363349914551,147.19508361816406,112.30684661865234
2024-02-05 21:44:22.034569-09:00,,23.110258102416992,-0.7353582978248596,23.985641479492188,103.68924713134766,-1.9915361404418945,41.14461898803711,134.92660522460938,-6.8264899253845215
2024-02-05 21:44:22.038569-09:00,,21.47207260131836,-6.170353412628174,40.40444564819336,75.20213317871094,-3.2251572608947754,91.3523178100586,115.93113708496094,-51.910369873046875
2024-02-05 21:44:22.042569-09:00,,20.723201751708984,-9.099506378173828,56.297996520996094,53.33114242553711,-3.489865779876709,163.54458618164062,22.875869750976562,46.45683288574219
2024-02-05 21:44:22.046569-09:00,,19.999895095825195,-6.00535249710083,68.6710205078125,27.18842887878418,16.746135711669922,122.4068603515625,5.15675687789917,125.75469207763672
2024-02-05 21:44:22.050569-09:00,,18.330629348754883,-6.403186321258545,75.36328125,2.519639253616333,63.97233963012695,100.63753509521484,4.221588134765625,348.9309997558594
2024-02-05 21:44:22.054569-09:00,,16.741518020629883,-3.083127975463867,70.99089050292969,-5.530452728271484,109.8164291381836,22.494304656982422,63.77885818481445,276.43914794921875
2024-02-05 21:44:22.058417-09:00,,15.32437801361084,2.72878360748291,68.24412536621094,-19.444704055786133,103.11127471923828,-31.44312858581543,148.77386474609375,53.49655532836914
2024-02-05 21:44:22.062417-09:00,,13.388365745544434,6.640277862548828,53.409088134765625,-9.108992576599121,100.57917022705078,-39.00050735473633,136.0507354736328,-6.327396392822266
2024-02-05 21:44:22.066417-09:00,,11.850537300109863,14.653921127319336,42.54584503173828,16.840362548828125,86.30023193359375,13.572662353515625,117.74102783203125,6.1305766105651855
2024-02-05 21:44:22.070417-09:00,,10.0,21.34520149230957,25.849050521850586,49.81060791015625,36.50259780883789,79.00379180908203,50.45780944824219,106.98208618164062
2024-02-05 21:44:22.074417-09:00,,8.240424156188965,27.811309814453125,10.99038028717041,71.82474517822266,-5.194658279418945,131.69590759277344,-9.006819725036621,216.9984588623047
2024-02-05 21:44:22.078417-09:00,,6.488039016723633,34.412391662597656,-6.0174665451049805,90.67440795898438,-16.138530731201172,131.0890350341797,-4.235095977783203,178.78749084472656
2024-02-05 21:44:22.082417-09:00,,4.700771331787109,40.24940490722656,-7.308953762054443,103.57148742675781,3.5328052043914795,113.5565185546875,55.0042610168457,62.942108154296875
2024-02-05 21:44:22.086417-09:00,,3.0603115558624268,47.03931427001953,-10.217416763305664,78.24642944335938,18.338886260986328,50.53752899169922,116.48580932617188,-55.368858337402344
2024-02-05 21:44:22.090417-09:00,,1.7009236812591553,49.794864654541016,-10.822378158569336,69.6768798828125,61.26799011230469,3.872220039367676,152.92457580566406,-20.737157821655273
2024-02-05 21:44:22.094417-09:00,,-0.15211166441440582,49.627464294433594,4.467190742492676,38.42816925048828,102.71867370605469,-49.27662658691406,117.20166015625,87.56982421875
2024-02-05 21:44:22.098258-09:00,,-1.2136900424957275,47.47284698486328,13.37424087524414,5.962604999542236,112.7300033569336,14.808905601501465,49.12367630004883,194.1634063720703
2024-02-05 21:44:22.102258-09:00,,-2.0604588985443115,44.10994338989258,28.773452758789062,-9.164007186889648,122.34541320800781,59.86473083496094,-12.480022430419922,145.36111450195312
2024-02-05 21:44:22.106258-09:00,,-2.7626357078552246,40.055381774902344,44.96470642089844,-5.748337268829346,76.31597900390625,115.8377456665039,0.16911832988262177,83.20494842529297
2024-02-05 21:44:22.110258-09:00,,-3.5069518089294434,35.65169143676758,61.365211486816406,-20.456687927246094,35.098167419433594,121.94031524658203,37.53436279296875,7.444860458374023
2024-02-05 21:44:22.114258-09:00,,-3.3470468521118164,29.920305252075195,65.62737274169922,7.057071208953857,-13.214336395263672,117.06034088134766,218.41062927246094,-53.01335144042969
2024-02-05 21:44:22.118258-09:00,,-4.243262767791748,22.068099975585938,74.48355102539062,34.82389831542969,-29.52553939819336,69.68450164794922,345.0960693359375,59.986602783203125
2024-02-05 21:44:22.122258-09:00,,-4.374797344207764,15.528894424438477,74.58580780029297,62.303707122802734,-19.56595802307129,12.071578979492188,246.8055877685547,184.59291076660156
2024-02-05 21:44:22.126258-09:00,,-4.131896495819092,8.60932731628418,64.45103454589844,92.12808227539062,17.223312377929688,-22.303590774536133,65.93450164794922,217.61187744140625
2024-02-05 21:44:22.130258-09:00,,-4.0048675537109375,0.7949941754341125,52.36685562133789,92.83110046386719,61.19356155395508,-7.43173885345459,-32.50565719604492,100.47830200195312
2024-02-05 21:44:22.134258-09:00,,-2.608462333679199,-4.116255760192871,35.438419342041016,94.09477233886719,103.72208404541016,38.32265090942383,-19.05143165588379,27.635286331176758
2024-02-05 21:44:22.139544-09:00,,-1.9139093160629272,-7.180210590362549,19.894676208496094,79.6385726928711,123.31744384765625,98.427001953125,13.854339599609375,-52.521568298339844
2024-02-05 21:44:22.143544-09:00,,-0.3727484345436096,-10.368595123291016,6.803764343261719,50.988380432128906,118.26619720458984,120.916748046875,105.75310516357422,18.76691436767578
2024-02-05 21:44:22.147544-09:00,,0.19113898277282715,-10.052332878112793,-4.5296430587768555,23.643096923828125,78.84152221679688,148.81407165527344,136.60862731933594,145.56732177734375
2024-02-05 21:44:22.151544-09:00,,2.0490777492523193,-5.1083574295043945,-6.501823902130127,-3.7508158683776855,35.232948303222656,92.03099822998047,146.70578002929688,195.03175354003906
2024-02-05 21:44:22.155544-09:00,,3.3958616256713867,-1.31215238571167,-11.065230369567871,-22.647262573242188,10.884476661682129,33.800811767578125,79.49478912353516,158.0659942626953
2024-02-05 21:44:22.159544-09:00,,4.712038040161133,0.6907699108123779,-3.3338897228240967,-10.27286148071289,-20.404159545898438,-17.9288272857666,-13.441339492797852,48.21460723876953
2024-02-05 21:44:22.163544-09:00,,6.357443332672119,8.338597297668457,6.209275245666504,-3.551912307739258,-20.350135803222656,-7.5662994384765625,-21.568363189697266,-50.516998291015625
2024-02-05 21:44:22.167544-09:00,,8.268506050109863,14.324357032775879,19.920209884643555,18.169885635375977,14.667764663696289,15.644597053527832,24.179367065429688,-13.962182998657227
2024-02-05 21:44:22.171544-09:00,,10.0,21.338253021240234,34.14808654785156,48.957557678222656,64.4356689453125,83.8866958618164,101.96101379394531,103.74529266357422
2024-02-05 21:44:22.174032-09:00,,13.375100135803223,34.680641174316406,58.15691375732422,94.69708251953125,106.53764343261719,160.46414184570312,158.7145233154297,318.32647705078125
2024-02-05 21:44:22.175544-09:00,,11.795635223388672,27.706865310668945,47.32841873168945,75.75442504882812,97.23873901367188,137.950927734375,137.28460693359375,338.52630615234375
2024-02-05 21:44:22.178032-09:00,,15.089889526367188,41.768043518066406,66.2476577758789,106.19784545898438,107.035888671875,117.49312591552734,84.0689697265625,112.82965087890625
2024-02-05 21:44:22.182032-09:00,,16.815744400024414,45.5761604309082,67.48482513427734,84.31666564941406,72.02996063232422,46.6412467956543,24.41464614868164,3.5287508964538574
2024-02-05 21:44:22.186032-09:00,,17.957901000976562,47.61806869506836,63.65889358520508,66.96723175048828,38.67182922363281,-2.6866421699523926,-27.73710060119629,-42.81608963012695
2024-02-05 21:44:22.190032-09:00,,19.532453536987305,49.9347038269043,58.40233612060547,38.6466178894043,-10.180049896240234,-28.28598976135254,-0.2738493084907532,87.1454849243164
2024-02-05 21:44:22.194032-09:00,,20.54068946838379,50.10732650756836,44.720298767089844,12.280009269714355,-3.3350470066070557,-5.4091925621032715,83.57789611816406,198.33038330078125
2024-02-05 21:44:22.198032-09:00,,21.821550369262695,46.00053024291992,31.20179557800293,-16.116321563720703,-9.243934631347656,59.888938903808594,169.40260314941406,164.62049865722656
2024-02-05 21:44:22.202032-09:00,,23.35531234741211,39.253231048583984,15.336522102355957,-15.603338241577148,14.317049026489258,124.39373016357422,135.74868774414062,83.51043701171875
2024-02-05 21:44:22.206032-09:00,,23.24092674255371,36.054927825927734,-0.3283054828643799,-10.850174903869629,63.85731887817383,161.4243927001953,103.26834106445312,-47.14891815185547
2024-02-05 21:44:22.210032-09:00,,23.481412887573242,29.66307830810547,-8.765644073486328,5.019057750701904,104.05500030517578,120.82691192626953,16.743330001831055,-30.291378021240234
2024-02-05 21:44:22.214986-09:00,,24.269411087036133,22.327533721923828,-9.999265670776367,34.057064056396484,112.90946197509766,72.248779296875,-8.789109230041504,66.40397644042969
2024-02-05 21:44:22.218986-09:00,,24.440446853637695,15.194981575012207,-12.033967018127441,63.26206588745117,125.36670684814453,14.59985065460205,-13.079266548156738,155.01246643066406
2024-02-05 21:44:22.222986-09:00,,24.513973236083984,7.57135009765625,-3.594630718231201,89.25707244873047,75.67543029785156,-31.477230072021484,75.02223205566406,191.70689392089844
2024-02-05 21:44:22.226986-09:00,,22.90590476989746,3.2324888706207275,9.320151329040527,94.17868041992188,35.383140563964844,-17.87087631225586,175.7466583251953,113.22344970703125
2024-02-05 21:44:22.230986-09:00,,23.380205154418945,-4.056490898132324,24.084075927734375,99.03449249267578,-11.05044937133789,39.06830596923828,189.9885711669922,9.40513801574707
2024-02-05 21:44:22.234986-09:00,,21.752548217773438,-4.139225006103516,40.63634490966797,79.88378143310547,-26.524555206298828,98.86933898925781,100.95384979248047,-29.91794776916504
2024-02-05 21:44:22.238986-09:00,,21.3719425201416,-6.531793117523193,51.61227035522461,51.25151824951172,-10.261812210083008,134.8092041015625,33.37550735473633,47.850303649902344
2024-02-05 21:44:22.242986-09:00,,19.47504234313965,-9.165953636169434,61.08744812011719,26.81915283203125,22.48918342590332,128.13088989257812,-0.8644686937332153,124.26564025878906
2024-02-05 21:44:22.246986-09:00,,18.571319580078125,-7.521636009216309,65.66431427001953,-3.1245996952056885,66.65852355957031,92.10774230957031,-18.86344337463379,150.89988708496094
2024-02-05 21:44:22.250986-09:00,,16.87916374206543,-4.821961879730225,68.11529541015625,-7.546905517578125,90.02286529541016,31.161088943481445,119.84988403320312,115.53108215332031
2024-02-05 21:44:22.257165-09:00,,15.033798217773438,3.2789175510406494,66.45803833007812,-19.19133758544922,109.28457641601562,0.9801269173622131,324.5556640625,8.331542015075684
2024-02-05 21:44:22.261165-09:00,,13.388829231262207,7.954898834228516,58.577911376953125,-9.870647430419922,98.80406951904297,-22.787166595458984,354.1819763183594,6.6377458572387695
2024-02-05 21:44:22.265165-09:00,,11.80854606628418,14.160356521606445,41.2700309753418,16.6248779296875,76.81983184814453,22.622175216674805,115.56336212158203,5.862799644470215
2024-02-05 21:44:22.269165-09:00,,10.0,21.388795852661133,26.20699119567871,49.133052825927734,33.6506462097168,86.6187744140625,43.35356521606445,108.02569580078125
2024-02-05 21:44:22.273165-09:00,,8.266587257385254,29.19980239868164,10.69594669342041,81.07754516601562,-7.475193977355957,143.17886352539062,-22.30672836303711,198.2790985107422
2024-02-05 21:44:22.277165-09:00,,6.452409744262695,34.29985046386719,-2.8959617614746094,90.0499267578125,-32.10131072998047,143.67901611328125,-28.471908569335938,131.4425811767578
2024-02-05 21:44:22.281165-09:00,,4.677385330200195,39.378658294677734,-11.89778995513916,96.52900695800781,-12.918793678283691,116.76103973388672,56.403076171875,50.645259857177734
2024-02-05 21:44:22.285165-09:00,,3.1776235103607178,45.91343307495117,-12.672688484191895,95.19300079345703,21.848920822143555,52.487144470214844,115.37039184570312,-46.18245315551758
2024-02-05 21:44:22.289165-09:00,,1.8447442054748535,44.933834075927734,-9.423436164855957,67.10939025878906,65.2507553100586,-10.10705852508545,147.23252868652344,-40.42479705810547
2024-02-05 21:44:22.293165-09:00,,0.054041676223278046,47.20498275756836,-0.8818666338920593,38.3790168762207,92.15478515625,-3.6252622604370117,131.02101135253906,89.85025787353516
2024-02-05 21:44:22.300657-09:00,,-0.5394547581672668,47.986915588378906,11.840679168701172,16.4858455657959,112.28083801269531,18.99943733215332,55.65358352661133,370.6552429199219
2024-02-05 21:44:22.304657-09:00,,-2.34371018409729,43.201290130615234,28.90981674194336,-4.966833591461182,114.65250396728516,59.86642074584961,-5.5724616050720215,360.3597106933594
2024-02-05 21:44:22.308657-09:00,,-2.653853178024292,41.895877838134766,44.21952819824219,-12.212652206420898,80.44786071777344,102.80091094970703,-17.15934181213379,162.10671997070312
2024-02-05 21:44:22.312657-09:00,,-3.510355234146118,34.73137283325195,58.36893081665039,-14.355010986328125,33.708675384521484,120.32323455810547,37.54994583129883,-40.197566986083984
2024-02-05 21:44:22.316657-09:00,,-4.429015636444092,29.124177932739258,71.28429412841797,4.406893253326416,-8.537870407104492,112.59382629394531,117.85687255859375,-38.277915954589844
2024-02-05 21:44:22.320657-09:00,,-3.6729066371917725,22.133628845214844,72.38713836669922,33.88496398925781,-22.46440887451172,71.4376220703125,157.13372802734375,64.51547241210938
2024-02-05 21:44:22.324657-09:00,,-3.712584972381592,15.075789451599121,65.65995788574219,66.17781829833984,-6.313117980957031,18.05183982849121,143.61700439453125,170.4463348388672
2024-02-05 21:44:22.328657-09:00,,-3.8615059852600098,8.188679695129395,58.50083541870117,91.95125579833984,23.425121307373047,-44.15326690673828,64.5101318359375,208.59927368164062
2024-02-05 21:44:22.332657-09:00,,-3.7481236457824707,2.784705400466919,48.634315490722656,90.60861206054688,64.99296569824219,-25.121559143066406,15.54499340057373,100.09591674804688
2024-02-05 21:44:22.333305-09:00,,-1.8726593255996704,-7.657577037811279,19.380359649658203,81.85591125488281,103.40101623535156,106.91554260253906,17.16288948059082,-75.861083984375
2024-02-05 21:44:22.336657-09:00,,-2.2383036613464355,-3.5757601261138916,35.86362075805664,93.75022888183594,98.83087921142578,42.133907318115234,-17.568042755126953,-14.128317832946777
2024-02-05 21:44:22.337305-09:00,,-1.308513879776001,-8.236315727233887,8.374296188354492,53.109500885009766,116.08625793457031,157.05169677734375,100.10613250732422,34.750972747802734
2024-02-05 21:44:22.341305-09:00,,-0.08379951119422913,-6.529687881469727,-8.3280611038208,24.446521759033203,82.3664779663086,133.6587371826172,170.47891235351562,148.46664428710938
2024-02-05 21:44:22.345305-09:00,,2.0211658477783203,-8.99637508392334,-11.586281776428223,5.195105075836182,35.088287353515625,96.41253662109375,160.5458984375,177.60984802246094
2024-02-05 21:44:22.349305-09:00,,2.86944842338562,-1.2906793355941772,-9.812138557434082,-14.610675811767578,5.655594825744629,30.505126953125,79.52694702148438,129.1414794921875
2024-02-05 21:44:22.353305-09:00,,4.966739177703857,0.5905849933624268,-2.2454817295074463,-14.769362449645996,-24.800649642944336,-12.337099075317383,-23.239660263061523,10.533421516418457
2024-02-05 21:44:22.357305-09:00,,6.539981842041016,7.024598121643066,5.045294284820557,5.732885837554932,-18.070337295532227,-19.674579620361328,-17.383544921875,8.576606750488281
2024-02-05 21:44:22.361305-09:00,,8.23940658569336,13.97464656829834,19.06224250793457,18.725727081298828,13.513179779052734,14.683197975158691,20.27078628540039,9.787613868713379
2024-02-05 21:44:22.365305-09:00,,10.0,21.336681365966797,34.34926223754883,47.74308395385742,63.89299392700195,82.60889434814453,108.37347412109375,118.13394927978516
2024-02-05 21:44:22.369305-09:00,,11.82003402709961,27.98236846923828,47.61517333984375,75.9383544921875,96.26940155029297,137.15597534179688,178.6327667236328,214.40835571289062
2024-02-05 21:44:22.375212-09:00,,13.499629020690918,33.99354934692383,60.08496856689453,101.42784881591797,115.47856140136719,135.1705780029297,128.07333374023438,171.13624572753906
2024-02-05 21:44:22.379212-09:00,,15.340621948242188,41.211708068847656,74.34086608886719,91.67984771728516,97.74461364746094,122.73250579833984,89.79430389404297,52.884132385253906
2024-02-05 21:44:22.383212-09:00,,16.725191116333008,43.54570770263672,66.94659423828125,87.18295288085938,79.7953872680664,46.4484977722168,-10.99055004119873,12.437030792236328
2024-02-05 21:44:22.387212-09:00,,18.276548385620117,47.48830795288086,73.2041015625,71.24029541015625,36.31032943725586,-20.47577476501465,-38.78940200805664,-13.13376235961914
2024-02-05 21:44:22.391212-09:00,,19.676664352416992,48.53104019165039,60.14200973510742,38.860294342041016,-10.966971397399902,-30.16021156311035,11.037203788757324,87.57061767578125
2024-02-05 21:44:22.395212-09:00,,20.630937576293945,46.750946044921875,48.27755355834961,16.44838523864746,-18.189186096191406,-11.666258811950684,188.65834045410156,216.54788208007812
2024-02-05 21:44:22.399212-09:00,,22.425132751464844,45.28443145751953,31.071046829223633,-0.07949525862932205,-13.96136474609375,59.89221954345703,352.1596984863281,172.87770080566406
2024-02-05 21:44:22.403212-09:00,,22.74456024169922,41.72356414794922,14.148412704467773,-26.27759552001953,26.1962890625,135.19618225097656,163.03652954101562,82.45455169677734
2024-02-05 21:44:22.407212-09:00,,24.087675094604492,36.475242614746094,3.1260690689086914,-3.644505262374878,62.87964630126953,148.04344177246094,99.59271240234375,-50.32467269897461
2024-02-05 21:44:22.411212-09:00,,24.478565216064453,28.668102264404297,-10.82479476928711,3.122274398803711,95.89128875732422,122.74111938476562,7.674372673034668,-40.83502960205078
2024-02-05 21:44:22.416273-09:00,,24.152080535888672,22.121984481811523,-14.934144020080566,35.37944412231445,118.25337219238281,69.168212890625,-42.2996940612793,59.633827209472656
2024-02-05 21:44:22.420273-09:00,,23.488176345825195,15.494096755981445,-5.145238399505615,60.31010055541992,121.14954376220703,0.31552043557167053,-19.6669921875,356.563720703125
2024-02-05 21:44:22.424273-09:00,,23.271360397338867,8.776597023010254,-8.10615348815918,81.91602325439453,80.17975616455078,-9.484594345092773,76.02650451660156,375.83197021484375
2024-02-05 21:44:22.428273-09:00,,23.107141494750977,0.6573039293289185,10.899240493774414,91.25984954833984,35.89961242675781,-19.26007843017578,149.56935119628906,238.9253692626953
2024-02-05 21:44:22.432273-09:00,,23.42162322998047,-3.039551258087158,23.60486602783203,88.63591003417969,9.772192001342773,36.68609619140625,154.32815551757812,-5.061822414398193
2024-02-05 21:44:22.436273-09:00,,22.320531845092773,-4.607756614685059,39.53539276123047,78.4740219116211,-10.97763442993164,107.44823455810547,104.33625030517578,-51.777381896972656
2024-02-05 21:44:22.440273-09:00,,21.267501831054688,-8.908807754516602,53.92980194091797,54.05292892456055,-14.359964370727539,138.09974670410156,24.24005699157715,46.35715866088867
2024-02-05 21:44:22.444273-09:00,,19.6700439453125,-10.447524070739746,68.5921401977539,25.655433654785156,15.174883842468262,146.2551727294922,-9.866898536682129,130.10047912597656
2024-02-05 21:44:22.448273-09:00,,18.23412322998047,-8.640233993530273,77.60287475585938,0.5857347249984741,61.47760009765625,94.69805908203125,-15.22203540802002,227.26495361328125
2024-02-05 21:44:22.452273-09:00,,16.636667251586914,-4.201202392578125,77.27886199951172,-11.812557220458984,91.87337493896484,23.053359985351562,60.24613571166992,141.57870483398438
2024-02-05 21:44:22.458066-09:00,,15.309176445007324,2.972705364227295,62.92744064331055,-6.461624622344971,122.93482208251953,-6.199191570281982,126.15374755859375,21.46294593811035
2024-02-05 21:44:22.462066-09:00,,13.57528018951416,8.261981964111328,58.121337890625,-5.846112251281738,104.94512176513672,-20.186418533325195,167.34158325195312,-9.108599662780762
2024-02-05 21:44:22.466066-09:00,,11.842896461486816,14.369351387023926,41.884796142578125,20.02658462524414,80.73486328125,10.581972122192383,130.2809600830078,30.3597354888916
2024-02-05 21:44:22.470066-09:00,,10.0,21.526256561279297,25.169658660888672,47.70307540893555,33.5377197265625,85.79837799072266,31.82453155517578,112.45084381103516
2024-02-05 21:44:22.474066-09:00,,8.221272468566895,28.402923583984375,9.727742195129395,79.95306396484375,-4.583367347717285,135.19357299804688,-33.99598693847656,192.5779266357422
2024-02-05 21:44:22.478066-09:00,,6.630397796630859,35.06476974487305,-3.3429136276245117,84.47280883789062,-3.9659361839294434,158.80010986328125,-5.558390140533447,145.1425018310547
2024-02-05 21:44:22.482066-09:00,,4.612740993499756,40.354637145996094,-13.852499961853027,106.25636291503906,0.389216810464859,99.25492858886719,51.982948303222656,46.11404800415039
2024-02-05 21:44:22.486066-09:00,,3.3392412662506104,44.68592071533203,-15.403868675231934,81.88220977783203,14.167902946472168,48.182716369628906,141.70118713378906,14.642041206359863
2024-02-05 21:44:22.490066-09:00,,1.6354283094406128,49.63783645629883,-4.065843105316162,71.20343780517578,64.18732452392578,12.537068367004395,169.8501434326172,-36.24765396118164
2024-02-05 21:44:22.494066-09:00,,0.3652338683605194,50.98337936401367,-0.11283750832080841,38.74148178100586,112.95316314697266,-24.05413055419922,133.64675903320312,88.25637817382812
2024-02-05 21:44:22.499678-09:00,,-0.6115804314613342,46.69242477416992,14.901623725891113,8.051801681518555,133.6271514892578,16.727035522460938,47.84956741333008,193.98118591308594
2024-02-05 21:44:22.503678-09:00,,-2.3921878337860107,47.17420959472656,28.862895965576172,-8.973690032958984,113.5412826538086,59.89511489868164,-4.1173272132873535,193.08277893066406
2024-02-05 21:44:22.507678-09:00,,-3.2149648666381836,39.877479553222656,43.658653259277344,-9.729252815246582,72.69134521484375,132.24261474609375,-34.5092887878418,82.46983337402344
2024-02-05 21:44:22.511678-09:00,,-3.9174556732177734,36.79236602783203,58.59140396118164,-16.795494079589844,38.89323425292969,161.0994110107422,43.633026123046875,-34.2535400390625
2024-02-05 21:44:22.515678-09:00,,-3.9936249256134033,28.682723999023438,73.40595245361328,9.466104507446289,-10.98884105682373,141.5175323486328,119.31710052490234,11.813313484191895
2024-02-05 21:44:22.519678-09:00,,-4.733278274536133,22.002973556518555,77.70454406738281,34.5720329284668,-3.702195644378662,72.41092681884766,191.49298095703125,68.11222839355469
2024-02-05 21:44:22.523678-09:00,,-4.424727916717529,15.275321006774902,71.10922241210938,60.308841705322266,1.539730191230774,14.26512622833252,145.9069061279297,169.1675262451172
2024-02-05 21:44:22.527678-09:00,,-3.226787567138672,7.68250846862793,65.4690933227539,78.53250122070312,16.59605598449707,-16.754432678222656,65.14799499511719,189.76524353027344
2024-02-05 21:44:22.531678-09:00,,-3.675807476043701,1.3104808330535889,53.2009162902832,85.48158264160156,64.5612564086914,-9.76237964630127,0.7270780205726624,107.48687744140625
2024-02-05 21:44:22.535178-09:00,,-2.504770040512085,-6.751078128814697,19.675643920898438,80.46021270751953,119.63854217529297,102.67730712890625,56.17396545410156,-1.2120041847229004
2024-02-05 21:44:22.535678-09:00,,-2.3463351726531982,-4.555700302124023,36.8131217956543,95.12960052490234,104.32704162597656,44.11257553100586,-23.224761962890625,-9.935295104980469
2024-02-05 21:44:22.539178-09:00,,-0.7564999461174011,-6.696256637573242,4.481687068939209,54.38736343383789,124.52436065673828,132.6409912109375,228.280029296875,33.26152420043945
2024-02-05 21:44:22.543178-09:00,,0.4856787919998169,-7.020503520965576,-2.5945627689361572,21.62055778503418,86.29814910888672,139.12669372558594,158.66522216796875,298.07550048828125
2024-02-05 21:44:22.547178-09:00,,2.037914276123047,-4.942529201507568,-12.344650268554688,0.7502060532569885,37.66923141479492,86.68923950195312,130.4982452392578,390.6230773925781
2024-02-05 21:44:22.551178-09:00,,3.372847557067871,-1.1238023042678833,-9.39567756652832,-7.734456539154053,-12.603141784667969,36.1063117980957,75.90616607666016,302.5610046386719
2024-02-05 21:44:22.555178-09:00,,4.922680377960205,1.4322055578231812,-5.432099342346191,-20.93485450744629,-22.547109603881836,-9.145394325256348,12.523645401000977,33.11154556274414
2024-02-05 21:44:22.559178-09:00,,6.558348178863525,8.63098430633545,1.4595531225204468,-8.797062873840332,-26.369199752807617,-22.972888946533203,-15.642863273620605,-45.6798095703125
2024-02-05 21:44:22.563178-09:00,,8.140822410583496,14.660733222961426,17.374805450439453,23.722389221191406,26.321544647216797,19.13538932800293,27.682485580444336,38.02766799926758
2024-02-05 21:44:22.567178-09:00,,10.0,21.34332847595215,34.86785888671875,47.56147003173828,61.277381896972656,83.55801391601562,93.3180160522461,132.2593536376953
2024-02-05 21:44:22.571178-09:00,,11.717206001281738,27.59601593017578,51.101341247558594,77.15228271484375,99.01268768310547,142.77163696289062,135.61090087890625,189.2023468017578
2024-02-05 21:44:22.576261-09:00,,13.362953186035156,35.039451599121094,66.34911346435547,97.50253295898438,110.47562408447266,141.703369140625,154.4508819580078,173.77569580078125
2024-02-05 21:44:22.580261-09:00,,15.185294151306152,41.906490325927734,66.49232482910156,88.99156188964844,119.88870239257812,118.08587646484375,180.5817108154297,113.41692352294922
2024-02-05 21:44:22.584261-09:00,,16.80843162536621,44.40657424926758,68.38619232177734,82.2730484008789,77.29695892333984,47.863529205322266,37.693817138671875,-29.56032943725586
2024-02-05 21:44:22.588261-09:00,,18.64304542541504,47.776275634765625,63.675148010253906,67.99015045166016,35.39866638183594,-3.133558750152588,-24.055999755859375,-37.79130554199219
2024-02-05 21:44:22.592261-09:00,,19.585134506225586,48.372615814208984,58.558963775634766,38.753074645996094,1.438388705253601,-45.967716217041016,-8.18812370300293,91.80412292480469
2024-02-05 21:44:22.596261-09:00,,21.142728805541992,46.90574264526367,47.14584732055664,14.47833251953125,-4.629866600036621,11.122517585754395,82.1274185180664,142.61459350585938
2024-02-05 21:44:22.600261-09:00,,21.39832305908203,42.72486877441406,31.127458572387695,-14.208369255065918,-16.076248168945312,59.90874481201172,139.79693603515625,149.6815948486328
2024-02-05 21:44:22.604261-09:00,,22.531070709228516,41.44595718383789,17.12880516052246,-16.896631240844727,16.488298416137695,118.62639617919922,147.75514221191406,83.2007827758789
2024-02-05 21:44:22.608261-09:00,,23.14838981628418,35.68673324584961,-1.6700224876403809,-7.180997848510742,64.89266967773438,143.955078125,106.74909973144531,-22.861114501953125
2024-02-05 21:44:22.612261-09:00,,23.36681365966797,29.684856414794922,-10.724740028381348,12.148405075073242,100.167236328125,122.10282897949219,19.895484924316406,-55.87044143676758
2024-02-05 21:44:22.618174-09:00,,24.415245056152344,21.98958396911621,-9.218993186950684,35.13227081298828,127.8607406616211,69.16362762451172,-46.88148880004883,63.63409423828125
2024-02-05 21:44:22.622174-09:00,,24.489524841308594,14.626350402832031,-16.622072219848633,60.61598205566406,124.69288635253906,-0.692139208316803,11.165268898010254,138.58908081054688
2024-02-05 21:44:22.626174-09:00,,23.373096466064453,9.184001922607422,0.8193401098251343,81.39669799804688,86.39221954345703,0.7474521994590759,73.252685546875,146.61929321289062
2024-02-05 21:44:22.630174-09:00,,23.49235725402832,1.5563461780548096,6.761833190917969,92.10395050048828,32.9129524230957,9.508773803710938,140.6962127685547,102.95590209960938
2024-02-05 21:44:22.634174-09:00,,22.203630447387695,-0.9597607254981995,24.377904891967773,99.35377502441406,-14.299723625183105,42.903709411621094,132.71116638183594,-4.612973213195801
2024-02-05 21:44:22.638174-09:00,,21.89156723022461,-6.3344407081604,38.40107345581055,83.61708068847656,-17.857507705688477,89.96125030517578,102.03419494628906,-61.596988677978516
2024-02-05 21:44:22.642174-09:00,,21.31494903564453,-8.721758842468262,54.85879135131836,50.1958122253418,-5.243667125701904,151.1648712158203,34.68849563598633,19.525949478149414
2024-02-05 21:44:22.646174-09:00,,19.933618545532227,-7.782109260559082,69.42705535888672,24.682222366333008,21.79781723022461,158.66270446777344,-42.591407775878906,146.9291229248047
2024-02-05 21:44:22.650174-09:00,,18.593721389770508,-8.145585060119629,71.33448791503906,-2.9015753269195557,66.90740203857422,82.06951904296875,-2.619715452194214,194.31700134277344
2024-02-05 21:44:22.654174-09:00,,16.710845947265625,-2.55057430267334,69.86256408691406,-3.96032977104187,93.54695129394531,21.93943214416504,61.11723327636719,124.42947387695312
2024-02-05 21:44:22.659377-09:00,,15.082588195800781,1.0851188898086548,62.5585823059082,-10.717203140258789,125.20891571044922,-18.92898178100586,128.9425811767578,12.634194374084473
2024-02-05 21:44:22.663377-09:00,,13.619489669799805,6.984878063201904,52.553287506103516,-8.395862579345703,102.47750854492188,-24.330703735351562,172.46865844726562,-4.91281795501709
2024-02-05 21:44:22.667377-09:00,,11.778475761413574,14.67183780670166,39.97519302368164,18.929805755615234,81.45516967773438,21.436830520629883,109.95893096923828,2.5295627117156982
2024-02-05 21:44:22.671377-09:00,,10.0,21.352848052978516,25.596372604370117,48.797935485839844,33.49946594238281,84.27128601074219,43.48933029174805,129.16497802734375
2024-02-05 21:44:22.675377-09:00,,8.270560264587402,28.364500045776367,10.991341590881348,75.60721588134766,3.46113657951355,143.8038330078125,-18.094236373901367,172.25738525390625
2024-02-05 21:44:22.679377-09:00,,6.534208297729492,35.57220458984375,-5.4973626136779785,83.82454681396484,-28.144956588745117,131.93614196777344,-30.867467880249023,151.0961456298828
2024-02-05 21:44:22.683377-09:00,,4.823151588439941,38.97099685668945,-10.6482572555542,98.4207534790039,-24.786714553833008,105.024658203125,43.453433990478516,51.06875991821289
2024-02-05 21:44:22.687377-09:00,,3.2284305095672607,45.730289459228516,-6.613483905792236,93.75033569335938,17.22982406616211,50.45125961303711,111.44844818115234,-35.56599044799805
2024-02-05 21:44:22.691377-09:00,,1.9532889127731323,47.33262252807617,-11.944217681884766,65.17024993896484,66.44912719726562,-21.917343139648438,175.1374969482422,-18.849008560180664
2024-02-05 21:44:22.695377-09:00,,0.21789394319057465,48.602439880371094,2.719024419784546,38.85865020751953,92.26945495605469,-23.815998077392578,118.18196105957031,88.14029693603516
2024-02-05 21:44:22.699245-09:00,,-1.1376429796218872,47.686038970947266,13.378239631652832,11.923628807067871,135.63616943359375,6.21690559387207,54.63301086425781,198.83895874023438
2024-02-05 21:44:22.703245-09:00,,-1.7157642841339111,46.12705993652344,29.001161575317383,-11.209245681762695,105.15928649902344,59.88813781738281,-35.86371994018555,348.6302490234375
2024-02-05 21:44:22.707245-09:00,,-2.2931253910064697,38.907135009765625,43.06528854370117,-26.365522384643555,85.87556457519531,133.139892578125,-28.03557586669922,177.1807403564453
2024-02-05 21:44:22.711245-09:00,,-4.0721964836120605,36.16037368774414,60.03822708129883,-13.0017671585083,37.42844009399414,157.44989013671875,47.997901916503906,-52.12651062011719
2024-02-05 21:44:22.715245-09:00,,-4.486025810241699,28.7274227142334,67.95316314697266,7.970259666442871,3.2834603786468506,116.19537353515625,119.46914672851562,-56.52488327026367
2024-02-05 21:44:22.719245-09:00,,-4.586345195770264,22.204633712768555,78.44303131103516,33.84504318237305,-26.618946075439453,73.89222717285156,325.2902526855469,60.15506362915039
2024-02-05 21:44:22.723245-09:00,,-4.260730266571045,15.1754732131958,65.7369613647461,63.261417388916016,-18.471141815185547,21.568571090698242,303.5234069824219,134.177734375
2024-02-05 21:44:22.727245-09:00,,-3.6443932056427,8.583255767822266,64.4473876953125,83.44110107421875,18.375614166259766,-8.075403213500977,143.1432647705078,168.0826873779297
2024-02-05 21:44:22.731245-09:00,,-2.9527955055236816,1.1833118200302124,48.67219161987305,86.17327880859375,61.48000717163086,-12.11728572845459,-8.939053535461426,113.60454559326172
2024-02-05 21:44:22.735245-09:00,,-2.7822952270507812,-1.6024529933929443,37.331966400146484,86.5279312133789,110.80498504638672,39.016334533691406,-13.288919448852539,11.264104843139648
2024-02-05 21:44:22.739460-09:00,,-2.181236743927002,-7.043511390686035,19.9921817779541,84.41041564941406,119.02400970458984,99.92532348632812,17.596691131591797,-40.802520751953125
2024-02-05 21:44:22.743460-09:00,,-0.6243597269058228,-8.51150131225586,9.41032600402832,53.15779113769531,114.61243438720703,139.51254272460938,99.65815734863281,44.111568450927734
2024-02-05 21:44:22.747460-09:00,,0.024560967460274696,-5.585816383361816,-4.68137264251709,23.113828659057617,72.79247283935547,134.94729614257812,137.77369689941406,156.09735107421875
2024-02-05 21:44:22.751460-09:00,,1.8828411102294922,-8.071831703186035,-13.482193946838379,-7.241518497467041,33.849796295166016,87.04922485351562,173.53536987304688,173.269775390625
2024-02-05 21:44:22.755460-09:00,,3.4755289554595947,-5.13566255569458,-5.651490688323975,-3.520341396331787,1.4457451105117798,36.99012756347656,76.46505737304688,130.46461486816406
2024-02-05 21:44:22.759460-09:00,,4.6865129470825195,-0.03603510931134224,-7.739681243896484,-4.804308891296387,-8.279841423034668,-35.749820709228516,7.738918781280518,36.91543197631836
2024-02-05 21:44:22.763460-09:00,,6.4168925285339355,7.540184020996094,4.1427836418151855,-6.8158135414123535,1.9949661493301392,-42.39284896850586,-54.173316955566406,-49.630619049072266
2024-02-05 21:44:22.767460-09:00,,8.256635665893555,14.390666007995605,18.777606964111328,18.496801376342773,23.38054847717285,11.87411117553711,13.221899032592773,23.132400512695312
2024-02-05 21:44:22.771460-09:00,,10.0,21.39858627319336,34.709537506103516,49.410526275634766,66.03047180175781,83.28456115722656,103.66708374023438,114.78524780273438
2024-02-05 21:44:22.773749-09:00,,13.384961128234863,33.993560791015625,59.029876708984375,88.27188110351562,124.74151611328125,153.7923126220703,179.46022033691406,137.59901428222656
2024-02-05 21:44:22.775460-09:00,,11.83702278137207,27.662904739379883,47.07347106933594,80.06285095214844,89.39682006835938,145.70445251464844,175.40072631835938,160.18948364257812
2024-02-05 21:44:22.777749-09:00,,15.16836166381836,39.830745697021484,66.45750427246094,103.08550262451172,119.93114471435547,121.55048370361328,88.88179016113281,59.92658615112305
2024-02-05 21:44:22.781749-09:00,,16.635082244873047,46.62158203125,70.30770874023438,87.1514663696289,77.70301055908203,49.512229919433594,-0.808681845664978,-12.82768440246582
2024-02-05 21:44:22.785749-09:00,,18.598230361938477,45.50364303588867,66.00357055664062,70.81109619140625,38.4315185546875,-21.43035888671875,-30.815855026245117,-36.36166000366211
2024-02-05 21:44:22.789749-09:00,,19.537010192871094,48.69288635253906,55.754913330078125,38.60941696166992,6.77663516998291,-25.331207275390625,-15.312336921691895,93.87094116210938
2024-02-05 21:44:22.793749-09:00,,20.725788116455078,46.09330749511719,47.036354064941406,15.078425407409668,-36.25178527832031,16.802112579345703,83.77220153808594,203.33062744140625
2024-02-05 21:44:22.797749-09:00,,21.768224716186523,45.37071990966797,31.14973258972168,-10.43480396270752,-24.482036590576172,59.91514587402344,150.2977294921875,151.9956817626953
2024-02-05 21:44:22.801749-09:00,,23.368961334228516,42.15883255004883,14.64513111114502,-5.224471092224121,19.706722259521484,120.01020812988281,151.23980712890625,84.1168441772461
2024-02-05 21:44:22.805749-09:00,,23.49519157409668,35.30473327636719,-1.009422779083252,-7.761921405792236,62.10234451293945,164.5614471435547,107.4282455444336,-22.4453067779541
2024-02-05 21:44:22.809749-09:00,,23.206968307495117,29.757801055908203,-5.195411682128906,13.893394470214844,95.76759338378906,109.4356460571289,19.8372859954834,1.1999696493148804
2024-02-05 21:44:22.814289-09:00,,23.785757064819336,22.164169311523438,-7.904880523681641,35.0111198425293,115.66319274902344,68.6109619140625,-53.6050910949707,59.21706771850586
2024-02-05 21:44:22.818289-09:00,,23.59358024597168,15.337579727172852,-8.977001190185547,61.22589111328125,114.98433685302734,12.893418312072754,11.799558639526367,180.3419647216797
2024-02-05 21:44:22.822289-09:00,,23.33391761779785,9.266929626464844,-3.682682752609253,77.81465148925781,81.85222625732422,-39.36888885498047,73.44860076904297,409.7362060546875
2024-02-05 21:44:22.826289-09:00,,23.678611755371094,2.5661840438842773,8.220525741577148,104.89593505859375,36.79378890991211,-24.222286224365234,160.43699645996094,230.586181640625
2024-02-05 21:44:22.830289-09:00,,22.285932540893555,-4.781370639801025,23.103809356689453,95.99813842773438,-7.026192665100098,40.033058166503906,162.76263427734375,29.499914169311523
2024-02-05 21:44:22.834289-09:00,,21.669034957885742,-5.1185736656188965,39.56685256958008,82.48458099365234,-30.84737205505371,112.32477569580078,124.12638854980469,-18.997135162353516
2024-02-05 21:44:22.838289-09:00,,21.12958335876465,-7.603371620178223,51.15237045288086,52.66267776489258,-16.745420455932617,158.2868194580078,18.69666290283203,26.43522071838379
2024-02-05 21:44:22.842289-09:00,,19.568227767944336,-10.518651962280273,64.91901397705078,21.649587631225586,27.649843215942383,157.53749084472656,1.3037171363830566,136.11602783203125
2024-02-05 21:44:22.846289-09:00,,18.71637535095215,-7.968901634216309,66.21890258789062,-4.119007587432861,66.07271575927734,82.5579605102539,-1.0247377157211304,169.5590057373047
2024-02-05 21:44:22.850289-09:00,,16.647550582885742,-2.9047961235046387,72.35943603515625,-4.854244709014893,91.0947036743164,34.712425231933594,64.08827209472656,115.91017150878906
2024-02-05 21:44:22.855690-09:00,,15.025293350219727,2.00764536857605,69.17792510986328,-20.512603759765625,136.51852416992188,-19.666976928710938,281.3320617675781,28.799476623535156
2024-02-05 21:44:22.859690-09:00,,13.532234191894531,7.090981483459473,58.0570068359375,-0.36236459016799927,124.40988159179688,-43.086849212646484,334.3580017089844,-32.92133331298828
2024-02-05 21:44:22.863690-09:00,,11.848387718200684,14.376686096191406,40.19794845581055,17.19632339477539,80.54961395263672,23.461950302124023,285.93536376953125,30.77713966369629
2024-02-05 21:44:22.867690-09:00,,10.0,21.52947235107422,26.180479049682617,47.78002166748047,36.53937530517578,82.8859634399414,37.16127014160156,115.92032623291016
2024-02-05 21:44:22.871690-09:00,,8.259709358215332,28.204679489135742,9.260576248168945,71.83748626708984,-6.455218315124512,152.00575256347656,-17.478361129760742,186.89662170410156
2024-02-05 21:44:22.875690-09:00,,6.515964031219482,34.54658508300781,2.6843760013580322,91.57244110107422,-19.86460304260254,150.279541015625,-34.74655532836914,161.03903198242188
2024-02-05 21:44:22.879690-09:00,,4.877512454986572,40.73164749145508,-13.844074249267578,90.37905883789062,-7.791213512420654,118.20191192626953,43.9365119934082,57.94744873046875
2024-02-05 21:44:22.883690-09:00,,3.1618049144744873,44.79220962524414,-11.941718101501465,77.68563079833984,23.764034271240234,47.204410552978516,114.45454406738281,-60.04095458984375
2024-02-05 21:44:22.887690-09:00,,1.508223056793213,46.98538589477539,-3.53816556930542,68.68008422851562,64.50624084472656,11.07351303100586,179.6474151611328,-18.699077606201172
2024-02-05 21:44:22.891690-09:00,,0.21559648215770721,50.329097747802734,0.24435527622699738,38.47187423706055,97.9490966796875,-8.726249694824219,129.80308532714844,91.06090545654297
2024-02-05 21:44:22.896590-09:00,,-0.8346328735351562,48.836490631103516,13.648673057556152,17.09345817565918,114.50830078125,5.285887241363525,54.296897888183594,215.18296813964844
2024-02-05 21:44:22.900590-09:00,,-1.8084378242492676,42.93826675415039,28.813446044921875,-17.26554298400879,112.35021209716797,59.87099838256836,-7.490795612335205,212.32614135742188
2024-02-05 21:44:22.904590-09:00,,-2.4296138286590576,39.0001220703125,43.620323181152344,-27.62727928161621,75.03321075439453,114.48969268798828,1.397744059562683,82.71855926513672
2024-02-05 21:44:22.908590-09:00,,-2.9309732913970947,34.55957794189453,60.80794906616211,-16.072168350219727,32.59383010864258,140.77642822265625,29.83088493347168,5.039403438568115
2024-02-05 21:44:22.912590-09:00,,-4.208846092224121,28.31182861328125,66.1583023071289,8.63706111907959,-14.70020580291748,135.30955505371094,115.40586853027344,-23.942485809326172
2024-02-05 21:44:22.916590-09:00,,-3.761960983276367,22.273576736450195,66.54695129394531,33.2107048034668,-13.586503982543945,71.99645233154297,138.13710021972656,67.23133087158203
2024-02-05 21:44:22.920590-09:00,,-4.7574543952941895,15.530240058898926,69.84258270263672,61.156124114990234,-11.75358772277832,5.450833797454834,147.29916381835938,182.66319274902344
2024-02-05 21:44:22.924590-09:00,,-3.2102067470550537,8.076827049255371,67.67829132080078,92.60250091552734,27.776941299438477,-44.997554779052734,65.00787353515625,205.7939910888672
2024-02-05 21:44:22.928590-09:00,,-3.83292293548584,1.3448983430862427,48.40771484375,105.31341552734375,65.72216796875,9.321144104003906,-34.64781188964844,116.25305938720703
2024-02-05 21:44:22.932590-09:00,,-3.174184560775757,-4.600078105926514,37.14789581298828,96.68000030517578,97.99560546875,41.403499603271484,-38.02446746826172,21.961313247680664
2024-02-05 21:44:22.937994-09:00,,-1.3447009325027466,-4.258111476898193,21.230161666870117,76.85730743408203,133.83677673339844,97.55179595947266,39.2114143371582,-8.40126895904541
2024-02-05 21:44:22.941994-09:00,,-0.9300915002822876,-9.305512428283691,8.839507102966309,54.90418243408203,107.85302734375,118.100341796875,119.94216918945312,39.39310836791992
2024-02-05 21:44:22.945994-09:00,,-0.01124434731900692,-6.0912394523620605,-3.690675973892212,25.135974884033203,82.7280044555664,157.67318725585938,170.75038146972656,135.19418334960938
2024-02-05 21:44:22.949994-09:00,,2.0642101764678955,-6.325526714324951,-9.505636215209961,-3.3291590213775635,38.000057220458984,89.43761444091797,125.17162322998047,338.0129089355469
2024-02-05 21:44:22.953994-09:00,,3.106694221496582,-2.2005176544189453,-14.591293334960938,-16.10135269165039,5.450656890869141,34.14842224121094,76.80809783935547,257.97943115234375
2024-02-05 21:44:22.957994-09:00,,5.036585807800293,2.7488620281219482,-10.313528060913086,-8.21378231048584,-14.252656936645508,-16.228883743286133,10.362556457519531,64.19606018066406
2024-02-05 21:44:22.961994-09:00,,6.61572790145874,6.7028093338012695,2.6070146560668945,-6.323012828826904,-1.5727239847183228,-16.705028533935547,-40.3378791809082,-23.7154598236084
2024-02-05 21:44:22.965994-09:00,,8.257935523986816,14.800135612487793,19.87114715576172,23.110515594482422,16.557641983032227,23.725061416625977,-2.150757074356079,-12.529424667358398
2024-02-05 21:44:22.969994-09:00,,10.0,21.471248626708984,33.892032623291016,47.785282135009766,64.19297790527344,84.33187103271484,90.90222930908203,113.96183776855469
2024-02-05 21:44:22.973994-09:00,,11.699216842651367,29.024612426757812,51.42559814453125,69.03605651855469,89.22066497802734,140.02877807617188,169.66151428222656,206.1772918701172
2024-02-05 21:44:22.978329-09:00,,13.515185356140137,34.88977813720703,60.76141357421875,83.39492797851562,114.58494567871094,168.198974609375,155.25294494628906,159.51766967773438
2024-02-05 21:44:22.982329-09:00,,15.100869178771973,40.79216384887695,70.9385986328125,100.09333038330078,114.60868835449219,117.08306121826172,89.96146392822266,62.04425811767578
2024-02-05 21:44:22.986329-09:00,,16.911605834960938,42.254478454589844,77.50090789794922,77.81572723388672,74.9504623413086,47.44660186767578,17.261930465698242,-17.653453826904297
2024-02-05 21:44:22.990329-09:00,,18.007814407348633,46.75296401977539,70.90585327148438,70.04352569580078,34.439605712890625,-15.13988208770752,-21.888582229614258,24.415386199951172
2024-02-05 21:44:22.994329-09:00,,20.145095825195312,45.79735565185547,57.7699089050293,38.5455322265625,-7.104758262634277,-26.384851455688477,11.462353706359863,93.57225799560547
2024-02-05 21:44:22.998329-09:00,,20.510509490966797,49.51262664794922,48.415218353271484,8.021078109741211,-32.58429718017578,10.628639221191406,184.06356811523438,161.7847900390625
2024-02-05 21:44:23.002329-09:00,,21.978288650512695,47.097267150878906,31.178665161132812,-12.654437065124512,-4.1565165519714355,59.872825622558594,317.1625671386719,165.56509399414062
2024-02-05 21:44:23.006329-09:00,,22.829322814941406,41.953155517578125,15.016057968139648,-10.536794662475586,18.50619888305664,115.07630920410156,342.72491455078125,83.80691528320312
2024-02-05 21:44:23.010329-09:00,,22.890254974365234,35.82793426513672,1.2445974349975586,-19.940309524536133,66.43032836914062,162.5864715576172,113.02313995361328,-8.199459075927734
2024-02-05 21:44:23.014329-09:00,,23.587541580200195,28.783985137939453,-8.63449764251709,10.997147560119629,106.13943481445312,139.983154296875,28.470849990844727,-16.554672241210938
2024-02-05 21:44:23.021936-09:00,,23.905033111572266,21.97905158996582,-12.862630844116211,35.10285949707031,123.06531524658203,69.42820739746094,-39.55091857910156,69.16669464111328
2024-02-05 21:44:23.025936-09:00,,24.43804168701172,15.165544509887695,-9.02015495300293,65.58922576904297,98.03426361083984,13.341341018676758,0.5073927044868469,156.7318115234375
2024-02-05 21:44:23.029936-09:00,,23.286296844482422,7.845541000366211,-6.661700248718262,82.02117919921875,81.34131622314453,-43.31016159057617,74.63319396972656,155.5759735107422
2024-02-05 21:44:23.033936-09:00,,22.907564163208008,1.7703838348388672,9.139525413513184,101.88865661621094,37.37183380126953,2.734105110168457,141.38662719726562,121.49089813232422
2024-02-05 21:44:23.037936-09:00,,22.27815055847168,-3.9858944416046143,22.797134399414062,82.92703247070312,-2.630082607269287,37.68514633178711,191.3916778564453,-10.943571090698242
2024-02-05 21:44:23.041936-09:00,,22.16001319885254,-7.523524284362793,39.967552185058594,83.94938659667969,-28.34805679321289,99.51677703857422,113.17216491699219,-58.874351501464844
2024-02-05 21:44:23.045936-09:00,,20.49984359741211,-7.234148025512695,55.912906646728516,54.75423049926758,-10.501209259033203,146.01614379882812,31.486833572387695,24.10851287841797
2024-02-05 21:44:23.049936-09:00,,20.08968734741211,-8.653522491455078,63.9349250793457,23.495210647583008,16.11115074157715,145.47750854492188,-13.975275039672852,155.50624084472656
2024-02-05 21:44:23.053936-09:00,,18.420103073120117,-8.085430145263672,72.84785461425781,-5.614871501922607,62.860809326171875,88.08080291748047,-3.524186372756958,191.76657104492188
2024-02-05 21:44:23.054554-09:00,,15.104748725891113,2.133166790008545,62.44634246826172,-19.49156379699707,131.60379028320312,-23.643535614013672,124.13015747070312,29.695825576782227
2024-02-05 21:44:23.057936-09:00,,17.05796241760254,-4.649742126464844,76.53292846679688,-15.765634536743164,108.66285705566406,34.58647537231445,64.08617401123047,129.40594482421875
2024-02-05 21:44:23.058554-09:00,,13.534773826599121,8.52037525177002,53.42174530029297,-5.577123641967773,116.0836181640625,-41.956939697265625,196.14857482910156,-38.884769439697266
2024-02-05 21:44:23.062554-09:00,,11.757579803466797,14.627828598022461,42.62202453613281,18.30415916442871,82.77494812011719,17.151649475097656,125.98312377929688,-3.7411205768585205
2024-02-05 21:44:23.066554-09:00,,10.0,21.528926849365234,26.25339126586914,48.69731903076172,37.9649772644043,82.58647918701172,33.220558166503906,103.51810455322266
2024-02-05 21:44:23.070554-09:00,,8.211249351501465,29.145421981811523,8.735347747802734,77.01515197753906,2.4420182704925537,134.63711547851562,-26.867408752441406,342.66790771484375
2024-02-05 21:44:23.074554-09:00,,6.437180519104004,33.7921142578125,-0.5371325016021729,100.69709777832031,-29.515953063964844,120.03166198730469,-30.473960876464844,318.829833984375
2024-02-05 21:44:23.078554-09:00,,4.763147354125977,40.720603942871094,-14.84545612335205,102.07272338867188,-15.096087455749512,114.8529281616211,45.98417663574219,99.71964263916016
2024-02-05 21:44:23.082554-09:00,,3.2440781593322754,45.923763275146484,-8.610373497009277,82.43306732177734,16.375757217407227,48.817169189453125,141.5095977783203,-44.73356628417969
2024-02-05 21:44:23.086554-09:00,,1.691736102104187,48.39033889770508,-5.180602073669434,63.28386688232422,64.18859100341797,-8.71967601776123,158.44589233398438,-25.95808219909668
2024-02-05 21:44:23.090554-09:00,,0.6211457848548889,48.24603271484375,2.6590447425842285,38.47941970825195,108.95423126220703,-33.58938980102539,140.54208374023438,90.66429138183594
2024-02-05 21:44:23.094324-09:00,,-1.2166657447814941,49.77947998046875,12.340425491333008,5.953976631164551,131.50619506835938,-13.866362571716309,51.525482177734375,183.51258850097656
2024-02-05 21:44:23.098324-09:00,,-2.225346088409424,46.052005767822266,28.971670150756836,-6.02913761138916,102.62149810791016,59.85468292236328,-44.55064010620117,211.7422332763672
2024-02-05 21:44:23.102324-09:00,,-2.3174149990081787,41.5742073059082,46.57276916503906,-10.295068740844727,81.13813781738281,122.38731384277344,-53.06135559082031,83.42574310302734
2024-02-05 21:44:23.106324-09:00,,-3.529951333999634,36.9598388671875,57.49091720581055,-5.945939540863037,33.67394256591797,152.88723754882812,37.60946273803711,8.997011184692383
2024-02-05 21:44:23.110324-09:00,,-3.795130491256714,28.713520050048828,64.59175872802734,6.203902244567871,4.175337314605713,123.88003540039062,127.50822448730469,-64.11241912841797
2024-02-05 21:44:23.114324-09:00,,-4.109193325042725,22.11847686767578,69.93441009521484,33.94654083251953,-33.286773681640625,69.4531478881836,201.90631103515625,57.43568420410156
2024-02-05 21:44:23.118324-09:00,,-4.383975028991699,15.081050872802734,75.22171020507812,63.350528717041016,-1.3592126369476318,20.220548629760742,129.31309509277344,184.27960205078125
2024-02-05 21:44:23.122324-09:00,,-3.517167806625366,7.57962703704834,61.06155014038086,83.49166107177734,20.069175720214844,-24.493675231933594,66.41768646240234,212.01934814453125
2024-02-05 21:44:23.126324-09:00,,-3.1145284175872803,1.336625576019287,49.21209716796875,97.81240844726562,60.98418045043945,-14.936306953430176,-30.734493255615234,119.09143829345703
2024-02-05 21:44:23.130324-09:00,,-2.642500877380371,-3.1459529399871826,37.22761154174805,98.90483856201172,113.40581512451172,44.525733947753906,-22.490201950073242,33.002960205078125
2024-02-05 21:44:23.135854-09:00,,-2.3628222942352295,-8.47551155090332,20.727487564086914,73.33356475830078,137.21397399902344,100.78424072265625,72.98273468017578,3.592750310897827
2024-02-05 21:44:23.139854-09:00,,-0.7019420862197876,-7.152146816253662,9.472429275512695,54.26495361328125,119.82138061523438,140.18702697753906,233.81503295898438,40.53297805786133
2024-02-05 21:44:23.143854-09:00,,0.13888312876224518,-9.633666038513184,-2.2816646099090576,25.655315399169922,72.24990844726562,145.66444396972656,376.65771484375,139.5658416748047
2024-02-05 21:44:23.147854-09:00,,1.7001259326934814,-8.979528427124023,-13.561586380004883,-2.8791840076446533,35.019187927246094,100.1968765258789,175.1479034423828,178.4567108154297
2024-02-05 21:44:23.151854-09:00,,3.0520143508911133,-3.728275775909424,-14.253141403198242,-15.995232582092285,-4.580517768859863,19.622722625732422,78.61167907714844,155.0245361328125
2024-02-05 21:44:23.155854-09:00,,4.959650039672852,2.9567174911499023,-11.48775863647461,-23.014989852905273,-7.192135334014893,-8.230306625366211,-9.528083801269531,24.663408279418945
2024-02-05 21:44:23.159854-09:00,,6.353386878967285,7.142058372497559,6.4113359451293945,-9.093393325805664,-8.953216552734375,-12.465104103088379,-39.69608688354492,-67.23925018310547
2024-02-05 21:44:23.163854-09:00,,8.243855476379395,14.455296516418457,19.817859649658203,18.37792205810547,16.646072387695312,24.727886199951172,19.397369384765625,-2.694981813430786
2024-02-05 21:44:23.167854-09:00,,10.0,21.411252975463867,34.55229568481445,49.12708282470703,63.207462310791016,79.38279724121094,97.5779800415039,117.72674560546875
2024-02-05 21:44:23.171854-09:00,,11.835735321044922,29.029937744140625,49.8224983215332,69.58404541015625,91.90151977539062,123.03007507324219,131.8934326171875,179.1388702392578
2024-02-05 21:44:23.177403-09:00,,13.586275100708008,35.826141357421875,61.6640625,90.91331481933594,129.44482421875,142.637451171875,141.89352416992188,158.47630310058594
2024-02-05 21:44:23.181403-09:00,,14.950345039367676,40.064697265625,68.90190887451172,95.02403259277344,102.97553253173828,105.63141632080078,91.50250244140625,47.464027404785156
2024-02-05 21:44:23.185403-09:00,,16.483325958251953,46.7600212097168,72.90357971191406,78.90856170654297,82.59170532226562,50.87825393676758,16.384992599487305,15.516676902770996
2024-02-05 21:44:23.189403-09:00,,18.36594009399414,49.395751953125,70.95487976074219,63.146942138671875,38.4006462097168,10.935298919677734,-26.995586395263672,12.468542098999023
2024-02-05 21:44:23.193403-09:00,,19.711708068847656,48.24253845214844,62.25524139404297,38.48483657836914,-0.21047461032867432,-37.34687042236328,-10.224040031433105,91.34598541259766
2024-02-05 21:44:23.197403-09:00,,21.145322799682617,46.4119758605957,48.52667999267578,8.381197929382324,-31.81998634338379,17.107038497924805,82.0377426147461,387.3863830566406
2024-02-05 21:44:23.201403-09:00,,22.37723159790039,44.707881927490234,30.971254348754883,-4.741134166717529,-15.678353309631348,59.8657112121582,166.04196166992188,356.61309814453125
2024-02-05 21:44:23.205403-09:00,,23.137861251831055,39.158390045166016,16.681230545043945,-11.909723281860352,19.21926498413086,126.54886627197266,161.9503631591797,179.8685760498047
2024-02-05 21:44:23.209403-09:00,,23.49753189086914,35.58557891845703,1.7142969369888306,-17.608610153198242,65.3883285522461,145.70484924316406,96.93484497070312,14.26323127746582
2024-02-05 21:44:23.213403-09:00,,23.475872039794922,28.285125732421875,-6.106553077697754,11.907357215881348,95.30286407470703,113.67549133300781,35.03230285644531,-15.431864738464355
2024-02-05 21:44:23.219348-09:00,,24.06844711303711,21.936647415161133,-11.82382869720459,34.52011489868164,123.12089538574219,70.83192443847656,-20.47719955444336,60.50789260864258
2024-02-05 21:44:23.223348-09:00,,23.87519073486328,15.400479316711426,-12.576581001281738,57.71078872680664,112.19800567626953,6.523801803588867,-0.4281032085418701,164.78578186035156
2024-02-05 21:44:23.227348-09:00,,23.674806594848633,9.091642379760742,-1.3619195222854614,88.21533966064453,78.70073699951172,-11.716350555419922,76.12378692626953,216.4844970703125
2024-02-05 21:44:23.231348-09:00,,24.015899658203125,3.97001576423645,9.500666618347168,101.12281036376953,34.13515090942383,-9.401928901672363,175.5503692626953,100.21622467041016
2024-02-05 21:44:23.235348-09:00,,22.786054611206055,-3.776495933532715,23.761611938476562,86.59119415283203,9.878538131713867,36.073482513427734,136.72866821289062,-0.937760591506958
2024-02-05 21:44:23.239348-09:00,,21.767961502075195,-4.575107097625732,38.50954818725586,85.05504608154297,-10.682174682617188,92.66433715820312,101.42564392089844,-43.316131591796875
2024-02-05 21:44:23.243348-09:00,,21.00396728515625,-6.595778942108154,54.24400329589844,54.944252014160156,-18.1700382232666,127.54360961914062,33.6005859375,29.460712432861328
2024-02-05 21:44:23.247348-09:00,,19.87627410888672,-10.608840942382812,64.88935852050781,22.782596588134766,22.038917541503906,156.4437713623047,1.0932176113128662,133.7747039794922
2024-02-05 21:44:23.251348-09:00,,18.083478927612305,-6.4245805740356445,72.43717193603516,-5.52521276473999,65.41248321533203,95.1123275756836,16.313989639282227,197.34915161132812
2024-02-05 21:44:23.255348-09:00,,16.92823600769043,-3.7818756103515625,77.07609558105469,-8.402450561523438,108.90505981445312,22.470787048339844,63.60304260253906,147.826416015625
2024-02-05 21:44:23.261742-09:00,,15.3886137008667,0.27033913135528564,66.888916015625,-15.77752685546875,133.08827209472656,-26.97788429260254,118.07799530029297,18.669570922851562
2024-02-05 21:44:23.265742-09:00,,13.369206428527832,6.399040222167969,57.75869369506836,0.5203953385353088,124.39513397216797,-35.99534606933594,193.42230224609375,-39.106361389160156
2024-02-05 21:44:23.269742-09:00,,11.748228073120117,14.842111587524414,43.30405807495117,17.424680709838867,74.98419189453125,15.196709632873535,113.00880432128906,29.410974502563477
2024-02-05 21:44:23.273742-09:00,,10.0,21.37071418762207,25.873544692993164,46.91108703613281,36.93706130981445,84.7686538696289,39.57728958129883,126.9567642211914
2024-02-05 21:44:23.277742-09:00,,8.249319076538086,28.449087142944336,13.332496643066406,76.92288208007812,-11.430686950683594,127.55241394042969,5.9622602462768555,175.9205780029297
2024-02-05 21:44:23.281742-09:00,,6.385504722595215,35.867244720458984,-2.275188684463501,86.70462799072266,-35.45380783081055,141.5604705810547,-59.41949462890625,140.86180114746094
2024-02-05 21:44:23.285742-09:00,,4.754832744598389,38.77142333984375,-13.263513565063477,96.9927978515625,-21.65929412841797,123.64114379882812,92.29759979248047,59.7253303527832
2024-02-05 21:44:23.289742-09:00,,3.3037188053131104,43.128196716308594,-13.348190307617188,83.22164154052734,23.119539260864258,49.576175689697266,264.9983825683594,-52.4851188659668
2024-02-05 21:44:23.293742-09:00,,1.4733229875564575,46.06018829345703,-9.60012435913086,67.97213745117188,63.96711730957031,-14.853331565856934,180.77822875976562,-1.0550199747085571
2024-02-05 21:44:23.294607-09:00,,-0.5687657594680786,46.95693588256836,13.345154762268066,11.23926067352295,131.1416015625,-8.742414474487305,50.96199035644531,173.62913513183594
2024-02-05 21:44:23.297742-09:00,,0.7962605953216553,48.614009857177734,-3.345637559890747,38.72200393676758,92.82292938232422,-22.072460174560547,117.9856185913086,86.71965789794922
2024-02-05 21:44:23.298607-09:00,,-2.1544382572174072,47.404991149902344,28.7910099029541,-12.072836875915527,122.87043762207031,59.8839225769043,-18.136459350585938,175.2761993408203
2024-02-05 21:44:23.302607-09:00,,-2.495030641555786,40.67290496826172,42.70296859741211,-27.555095672607422,77.17400360107422,128.8378143310547,-7.646999835968018,82.5307846069336
2024-02-05 21:44:23.306607-09:00,,-3.123134136199951,36.787391662597656,54.49005126953125,-1.6441808938980103,34.67040252685547,124.08692932128906,31.827001571655273,16.269678115844727
2024-02-05 21:44:23.310607-09:00,,-4.259947776794434,28.610248565673828,63.19489669799805,11.621091842651367,-11.611985206604004,131.81410217285156,105.4079818725586,-13.6080961227417
2024-02-05 21:44:23.314607-09:00,,-3.906559705734253,21.931743621826172,71.86436462402344,34.717201232910156,-16.787832260131836,71.03865051269531,151.1125946044922,69.22500610351562
2024-02-05 21:44:23.318607-09:00,,-4.682322025299072,14.877906799316406,72.62581634521484,58.26035690307617,-6.390903949737549,-2.491154432296753,165.64010620117188,287.9283752441406
2024-02-05 21:44:23.322607-09:00,,-4.106595516204834,8.67064094543457,58.55366516113281,89.86946868896484,14.420995712280273,-32.760433197021484,64.04569244384766,404.27886962890625
2024-02-05 21:44:23.326607-09:00,,-3.5201151371002197,3.358476400375366,53.777008056640625,92.16439056396484,63.541805267333984,-23.373638153076172,-36.86309051513672,243.09722900390625
2024-02-05 21:44:23.330607-09:00,,-2.456554889678955,-0.5731398463249207,36.24613571166992,95.98222351074219,90.55585479736328,32.94535446166992,-53.899505615234375,-18.121719360351562
2024-02-05 21:44:23.335449-09:00,,-2.2261598110198975,-3.7322747707366943,19.47068977355957,70.93009185791016,120.53678894042969,99.00072479248047,39.72113037109375,-3.335750102996826
2024-02-05 21:44:23.339449-09:00,,-0.4062705934047699,-9.856345176696777,5.692086696624756,52.654991149902344,100.1907958984375,151.39561462402344,104.77816772460938,38.052452087402344
2024-02-05 21:44:23.343449-09:00,,0.3116247057914734,-5.401566505432129,-5.8108954429626465,22.341323852539062,82.77389526367188,159.7675323486328,195.4401397705078,163.6072540283203
2024-02-05 21:44:23.347449-09:00,,1.8404613733291626,-5.7961015701293945,-13.252321243286133,-4.928976058959961,38.6039924621582,87.79490661621094,130.99957275390625,176.1429443359375
2024-02-05 21:44:23.351449-09:00,,3.3596956729888916,-4.638907432556152,-5.655292510986328,-21.56519889831543,-9.504912376403809,28.896854400634766,75.89557647705078,137.68499755859375
2024-02-05 21:44:23.355449-09:00,,4.695571422576904,2.869093656539917,-1.7347418069839478,-15.003435134887695,-2.884329080581665,3.747454881668091,6.4100189208984375,18.003498077392578
2024-02-05 21:44:23.359449-09:00,,6.5896687507629395,6.5910563468933105,6.265377044677734,-9.581640243530273,-21.4534854888916,-30.681516647338867,-61.70973205566406,-30.88986587524414
2024-02-05 21:44:23.363449-09:00,,8.287066459655762,14.78686237335205,19.51390838623047,17.29912757873535,19.763612747192383,16.828706741333008,12.507759094238281,-0.7580736875534058
2024-02-05 21:44:23.367449-09:00,,10.0,21.55083656311035,34.27546310424805,47.5756950378418,64.53934478759766,85.62628173828125,94.3333511352539,103.37342071533203
2024-02-05 21:44:23.371449-09:00,,11.809712409973145,28.36177635192871,51.35313034057617,80.29922485351562,104.5717544555664,131.35252380371094,166.5786895751953,162.94786071777344
2024-02-05 21:44:23.376419-09:00,,13.617822647094727,34.309730529785156,60.63468933105469,84.84127807617188,110.06847381591797,167.520751953125,166.7244415283203,153.1804656982422
2024-02-05 21:44:23.380419-09:00,,15.329275131225586,38.66411590576172,73.08211517333984,89.29804229736328,126.03289794921875,115.86790466308594,91.17375946044922,45.83000564575195
2024-02-05 21:44:23.384419-09:00,,16.848459243774414,45.23243713378906,67.29447937011719,94.75270080566406,74.6808090209961,48.93238830566406,-9.685576438903809,-34.199031829833984
2024-02-05 21:44:23.388419-09:00,,17.969188690185547,46.49087905883789,69.78569030761719,61.9549446105957,36.14087677001953,-20.6492862701416,-23.799297332763672,14.178975105285645
2024-02-05 21:44:23.392419-09:00,,19.52635383605957,46.505733489990234,61.63987350463867,38.383243560791016,-5.063291549682617,-33.829681396484375,22.489540100097656,93.437255859375
2024-02-05 21:44:23.396419-09:00,,21.390735626220703,44.853477478027344,45.51924514770508,11.75871467590332,-12.382034301757812,5.516618728637695,86.96398162841797,210.68109130859375
2024-02-05 21:44:23.400419-09:00,,21.39400863647461,44.8633918762207,31.221481323242188,-12.514748573303223,-24.686290740966797,59.872886657714844,130.6793212890625,195.03395080566406
2024-02-05 21:44:23.404419-09:00,,23.337934494018555,39.48659133911133,15.5304536819458,-22.34417724609375,26.45063591003418,107.23405456542969,163.99838256835938,84.22000885009766
2024-02-05 21:44:23.408419-09:00,,23.158946990966797,35.99214553833008,-0.678788959980011,-10.239436149597168,60.83319091796875,141.23348999023438,112.35166931152344,17.372087478637695
2024-02-05 21:44:23.412419-09:00,,24.422075271606445,29.55812644958496,-4.962831020355225,13.304802894592285,99.09532165527344,121.17456817626953,8.470526695251465,-60.38605499267578
2024-02-05 21:44:23.417394-09:00,,24.40557289123535,22.34564971923828,-6.757152080535889,33.712886810302734,137.43482971191406,69.05693054199219,-64.93038940429688,68.4665298461914
2024-02-05 21:44:23.421394-09:00,,24.261980056762695,14.657712936401367,-15.584879875183105,59.00123977661133,98.42347717285156,19.489898681640625,-8.02326488494873,151.0758056640625
2024-02-05 21:44:23.425394-09:00,,23.58955955505371,7.988924503326416,-1.8012480735778809,93.0322036743164,72.15066528320312,-32.456764221191406,155.51126098632812,198.64044189453125
2024-02-05 21:44:23.429394-09:00,,22.90833854675293,3.4159677028656006,6.65117073059082,106.35541534423828,37.083641052246094,-15.38756275177002,130.63365173339844,113.04192352294922
2024-02-05 21:44:23.433394-09:00,,23.025171279907227,-0.9065670967102051,22.876541137695312,88.6418228149414,-2.9510867595672607,38.14426040649414,155.48068237304688,15.99892807006836
2024-02-05 21:44:23.437394-09:00,,22.082706451416016,-8.0415620803833,38.86640548706055,77.40535736083984,-34.51290512084961,90.87518310546875,110.42672729492188,-20.31191062927246
2024-02-05 21:44:23.441394-09:00,,20.912309646606445,-5.823133945465088,54.561988830566406,52.748695373535156,-16.289331436157227,134.76939392089844,16.24492835998535,33.265716552734375
2024-02-05 21:44:23.445394-09:00,,19.733951568603516,-9.368303298950195,68.20455169677734,22.754270553588867,17.727645874023438,136.767822265625,-13.451753616333008,315.1142578125
